%OpenBCI Raw EEG Data
%Number of channels = 4
%Sample Rate = 200 Hz
%Board = OpenBCI_GUI$BoardGanglionBLE
Sample Index, EXG Channel 0, EXG Channel 1, EXG Channel 2, EXG Channel 3, Accel Channel 0, Accel Channel 1, Accel Channel 2, Other, Other, Other, Other, Other, Timestamp, Other, Timestamp (Formatted)
98.0, -63.31650624983013, -52.27258168067783, 54.2098498577252, 29.126340854912996, 0.0, 0.0, 0.0, 0.0, 0.0, 0.0, 0.0, 0.0, 1.6879227402765632E9, 0.0, 2023-06-28 12:25:40.276
98.0, 20.11318196170032, 45.245309663936496, 232.43104234617203, 152.78987278975546, 0.0, 0.0, 0.0, 0.0, 0.0, 0.0, 0.0, 0.0, 1.6879227402765632E9, 0.0, 2023-06-28 12:25:40.276
0.0, -133.751912065316, -189.68585580261424, 7.7079338086768985, -43.50999608449638, 0.0, 0.0, 0.0, 0.0, 0.0, 0.0, 0.0, 0.0, 1.6879227402973688E9, 0.0, 2023-06-28 12:25:40.297
1.0, -141.28033067611977, -197.1469562142156, -152.04563269857317, -160.80073849484324, 0.0, 0.01600000075995922, 0.0, 0.0, 0.0, 0.0, 0.0, 0.0, 1.6879227403107004E9, 0.0, 2023-06-28 12:25:40.310
1.0, -256.12143861548975, -304.00337774818763, -189.47455145511776, -183.35981502756476, 0.0, 0.01600000075995922, 0.0, 0.0, 0.0, 0.0, 0.0, 0.0, 1.6879227403107004E9, 0.0, 2023-06-28 12:25:40.310
2.0, -185.6579835503362, -226.0900419712998, -12.969973046332598, -53.03552127163857, -0.03200000151991844, 0.01600000075995922, 0.0, 0.0, 0.0, 0.0, 0.0, 0.0, 1.6879227403275917E9, 0.0, 2023-06-28 12:25:40.327
2.0, -127.84661003528163, -172.1419851104729, -73.67228922713548, -92.99635229818523, -0.03200000151991844, 0.01600000075995922, 0.0, 0.0, 0.0, 0.0, 0.0, 0.0, 1.6879227403275917E9, 0.0, 2023-06-28 12:25:40.327
3.0, -241.30769489100203, -305.55543622979894, -232.75267374236137, -218.585932710208, -0.03200000151991844, 0.01600000075995922, 0.0, 0.0, 0.0, 0.0, 0.0, 0.0, 1.6879227403281724E9, 0.0, 2023-06-28 12:25:40.328
3.0, -210.3413232578896, -248.1741512096487, -61.60363207012415, -97.05788365006447, -0.03200000151991844, 0.01600000075995922, 0.0, 0.0, 0.0, 0.0, 0.0, 0.0, 1.6879227403281724E9, 0.0, 2023-06-28 12:25:40.328
4.0, -101.7682876442559, -147.10335490712896, -5.5761908339336514, -48.42048472631723, -0.03200000151991844, 0.01600000075995922, 0.0, 0.0, 0.0, 0.0, 0.0, 0.0, 1.687922740340511E9, 0.0, 2023-06-28 12:25:40.340
4.0, -197.0011001159437, -243.4693570653908, -209.31472072005272, -196.96183116640896, -0.03200000151991844, 0.01600000075995922, 0.0, 0.0, 0.0, 0.0, 0.0, 0.0, 1.687922740340511E9, 0.0, 2023-06-28 12:25:40.340
5.0, -222.57827591290697, -283.65084218932316, -127.66522488743067, -143.78793359640986, -0.03200000151991844, 0.01600000075995922, 0.0, 0.0, 0.0, 0.0, 0.0, 0.0, 1.6879227403563912E9, 0.0, 2023-06-28 12:25:40.356
5.0, -141.25041147647426, -181.5440935990773, 10.591396674513817, -37.9450249504298, -0.03200000151991844, 0.01600000075995922, 0.0, 0.0, 0.0, 0.0, 0.0, 0.0, 1.6879227403563912E9, 0.0, 2023-06-28 12:25:40.356
6.0, -140.8278027814813, -202.5174525505863, -150.83764501288533, -154.10257767420262, -0.03200000151991844, 0.01600000075995922, 0.0, 0.0, 0.0, 0.0, 0.0, 0.0, 1.6879227403570642E9, 0.0, 2023-06-28 12:25:40.357
6.0, -256.6861635087989, -313.9814308299683, -191.86060762684792, -188.92104626167566, -0.03200000151991844, 0.01600000075995922, 0.0, 0.0, 0.0, 0.0, 0.0, 0.0, 1.6879227403570642E9, 0.0, 2023-06-28 12:25:40.357
7.0, -200.18001507828012, -227.1259942590259, -18.755598277784884, -59.382131496444345, -0.03200000151991844, 0.01600000075995922, 0.0, 0.0, 0.0, 0.0, 0.0, 0.0, 1.6879227403704813E9, 0.0, 2023-06-28 12:25:40.370
7.0, -118.87832994153723, -167.8784991609864, -72.65129653923213, -101.9758520917967, -0.03200000151991844, 0.01600000075995922, 0.0, 0.0, 0.0, 0.0, 0.0, 0.0, 1.6879227403704813E9, 0.0, 2023-06-28 12:25:40.370
8.0, -216.11572878947482, -288.6473485301249, -229.79067297745496, -215.78100774344057, -0.03200000151991844, 0.01600000075995922, 0.0, 0.0, 0.0, 0.0, 0.0, 0.0, 1.6879227403862271E9, 0.0, 2023-06-28 12:25:40.386
8.0, -198.52697929786518, -251.52136166999117, -58.540654006414115, -86.81055777147412, -0.03200000151991844, 0.01600000075995922, 0.0, 0.0, 0.0, 0.0, 0.0, 0.0, 1.6879227403862271E9, 0.0, 2023-06-28 12:25:40.386
9.0, -116.25292017264292, -166.20302398083732, -6.930034617893398, -47.728603234514594, -0.03200000151991844, 0.01600000075995922, 0.0, 0.0, 0.0, 0.0, 0.0, 0.0, 1.6879227403869839E9, 0.0, 2023-06-28 12:25:40.386
9.0, -200.12391657894477, -257.2957672015764, -218.3278796132654, -207.82624053768814, -0.03200000151991844, 0.01600000075995922, 0.0, 0.0, 0.0, 0.0, 0.0, 0.0, 1.6879227403869839E9, 0.0, 2023-06-28 12:25:40.386
10.0, -260.97208885801956, -287.4094416447915, -136.6185453813523, -145.65040377434343, -0.03200000151991844, 0.01600000075995922, 0.5120000243186951, 0.0, 0.0, 0.0, 0.0, 0.0, 1.6879227404008741E9, 0.0, 2023-06-28 12:25:40.400
10.0, -157.75085008097813, -179.00470152916387, 10.09025008045137, -37.78794915229082, -0.03200000151991844, 0.01600000075995922, 0.5120000243186951, 0.0, 0.0, 0.0, 0.0, 0.0, 1.6879227404008741E9, 0.0, 2023-06-28 12:25:40.400
11.0, -124.19646767852828, -197.3339512120001, -152.09799129795283, -151.60806440375745, -0.03200000151991844, 0.0, 0.5120000243186951, 0.0, 0.0, 0.0, 0.0, 0.0, 1.6879227404162176E9, 0.0, 2023-06-28 12:25:40.416
11.0, -234.9461250663735, -306.8045628149994, -190.10285464767367, -187.0922351833433, -0.03200000151991844, 0.0, 0.5120000243186951, 0.0, 0.0, 0.0, 0.0, 0.0, 1.6879227404162176E9, 0.0, 2023-06-28 12:25:40.416
12.0, -177.02255455264822, -230.89581341436133, -10.292204678058624, -51.45728349033743, -0.01600000075995922, 0.0, 0.5120000243186951, 0.0, 0.0, 0.0, 0.0, 0.0, 1.6879227404169345E9, 0.0, 2023-06-28 12:25:40.416
12.0, -120.84551731823012, -178.38761803647503, -75.22434770874679, -98.66978053096682, -0.01600000075995922, 0.0, 0.5120000243186951, 0.0, 0.0, 0.0, 0.0, 0.0, 1.6879227404169345E9, 0.0, 2023-06-28 12:25:40.416
13.0, -232.48901079548523, -292.4620464849286, -228.45552869327366, -212.2131431857124, -0.01600000075995922, 0.0, 0.5120000243186951, 0.0, 0.0, 0.0, 0.0, 0.0, 1.6879227404305396E9, 0.0, 2023-06-28 12:25:40.430
13.0, -230.23011122224852, -263.71717542549595, -65.23133502714336, -86.34307027701288, -0.01600000075995922, 0.0, 0.5120000243186951, 0.0, 0.0, 0.0, 0.0, 0.0, 1.6879227404305396E9, 0.0, 2023-06-28 12:25:40.430
14.0, -101.53267394704744, -158.13979967636988, -9.26747209019959, -46.872166144661605, -0.01600000075995922, 0.0, 0.5120000243186951, 0.0, 0.0, 0.0, 0.0, 0.0, 1.6879227404462516E9, 0.0, 2023-06-28 12:25:40.446
14.0, -195.47148103406653, -232.74332399247214, -210.96775650046766, -201.60304701142013, -0.01600000075995922, 0.0, 0.5120000243186951, 0.0, 0.0, 0.0, 0.0, 0.0, 1.6879227404462516E9, 0.0, 2023-06-28 12:25:40.446
15.0, -249.09042669879273, -290.3078641104512, -133.11051922291517, -138.55955345835537, -0.01600000075995922, 0.0, 0.5120000243186951, 0.0, 0.0, 0.0, 0.0, 0.0, 1.6879227404469688E9, 0.0, 2023-06-28 12:25:40.446
15.0, -137.21879932424054, -192.46834136964753, 8.740146196447313, -37.85526735149324, -0.01600000075995922, 0.0, 0.5120000243186951, 0.0, 0.0, 0.0, 0.0, 0.0, 1.6879227404469688E9, 0.0, 2023-06-28 12:25:40.446
16.0, -140.54357038484886, -208.80048447614536, -156.8177450420335, -158.4072025232017, -0.01600000075995922, 0.0, 0.5120000243186951, 0.0, 0.0, 0.0, 0.0, 0.0, 1.6879227404605293E9, 0.0, 2023-06-28 12:25:40.460
16.0, -239.11611351696774, -294.7583450577222, -184.7211386114359, -185.5289570018649, -0.01600000075995922, 0.0, 0.5120000243186951, 0.0, 0.0, 0.0, 0.0, 0.0, 1.6879227404605293E9, 0.0, 2023-06-28 12:25:40.460
17.0, -195.39668303495273, -229.47465143119916, -10.961646770127118, -48.061454330570996, -0.01600000075995922, 0.0, 0.5120000243186951, 0.0, 0.0, 0.0, 0.0, 0.0, 1.6879227404762278E9, 0.0, 2023-06-28 12:25:40.476
17.0, -117.61424375651404, -167.9458173601888, -71.86591754853725, -102.0469101909548, -0.01600000075995922, 0.0, 0.5120000243186951, 0.0, 0.0, 0.0, 0.0, 0.0, 1.6879227404762278E9, 0.0, 2023-06-28 12:25:40.476
18.0, -228.161946546752, -283.3366905930452, -222.0266406694427, -211.397844995372, -0.01600000075995922, 0.0, 0.5120000243186951, 0.0, 0.0, 0.0, 0.0, 0.0, 1.6879227404770277E9, 0.0, 2023-06-28 12:25:40.477
18.0, -220.13238134188578, -264.50255441619083, -65.6988225216046, -90.08671013265848, -0.01600000075995922, 0.0, 0.5120000243186951, 0.0, 0.0, 0.0, 0.0, 0.0, 1.6879227404770277E9, 0.0, 2023-06-28 12:25:40.477
19.0, -106.48056158842519, -162.63515942310914, -10.03789148107171, -51.42736429069191, -0.01600000075995922, 0.0, 0.5120000243186951, 0.0, 0.0, 0.0, 0.0, 0.0, 1.6879227404905615E9, 0.0, 2023-06-28 12:25:40.490
19.0, -185.52334715193138, -242.2800688794814, -212.66567108035088, -199.74431673344225, -0.01600000075995922, 0.0, 0.5120000243186951, 0.0, 0.0, 0.0, 0.0, 0.0, 1.6879227404905615E9, 0.0, 2023-06-28 12:25:40.490
20.0, -220.4614925379865, -274.342231199611, -122.4293649494648, -133.53312791790813, -0.01600000075995922, 0.0, 0.7520000357180834, 0.0, 0.0, 0.0, 0.0, 0.0, 1.6879227405062504E9, 0.0, 2023-06-28 12:25:40.506
20.0, -147.52596360212192, -184.03860686952248, 11.058884168975055, -35.38319348078221, -0.01600000075995922, 0.0, 0.7520000357180834, 0.0, 0.0, 0.0, 0.0, 0.0, 1.6879227405062504E9, 0.0, 2023-06-28 12:25:40.506
21.0, -163.25224291579798, -214.65342790680006, -159.23372041340917, -154.8505576653406, -0.01600000075995922, 0.0, 0.7520000357180834, 0.0, 0.0, 0.0, 0.0, 0.0, 1.6879227405069585E9, 0.0, 2023-06-28 12:25:40.506
21.0, -276.73202727129683, -321.2443165439181, -200.62319322302938, -193.14713321160525, -0.01600000075995922, 0.0, 0.7520000357180834, 0.0, 0.0, 0.0, 0.0, 0.0, 1.6879227405069585E9, 0.0, 2023-06-28 12:25:40.506
22.0, -164.56494780024514, -212.73859912948683, -11.036444769240916, -55.391658243723214, -0.01600000075995922, 0.0, 0.7520000357180834, 0.0, 0.0, 0.0, 0.0, 0.0, 1.6879227405205495E9, 0.0, 2023-06-28 12:25:40.520
22.0, -95.30200062086806, -146.9350594091229, -69.06473248172551, -91.81080401223153, -0.01600000075995922, 0.0, 0.7520000357180834, 0.0, 0.0, 0.0, 0.0, 0.0, 1.6879227405205495E9, 0.0, 2023-06-28 12:25:40.520
23.0, -239.3891262137331, -296.5759364361875, -227.60283150337636, -208.32738713175058, -0.01600000075995922, 0.0, 0.7520000357180834, 0.0, 0.0, 0.0, 0.0, 0.0, 1.6879227405362272E9, 0.0, 2023-06-28 12:25:40.536
23.0, -217.33493617502972, -262.9617156344466, -65.90825691912323, -89.8585762353614, -0.01600000075995922, 0.0, 0.7520000357180834, 0.0, 0.0, 0.0, 0.0, 0.0, 1.6879227405362272E9, 0.0, 2023-06-28 12:25:40.536
24.0, -101.70844924496487, -163.86558650853112, -9.888295482844114, -51.84623308572918, -0.01600000075995922, 0.0, 0.7520000357180834, 0.0, 0.0, 0.0, 0.0, 0.0, 1.6879227405369513E9, 0.0, 2023-06-28 12:25:40.536
24.0, -201.86670995829627, -248.90717160096392, -216.68606353271753, -206.44247755408287, -0.01600000075995922, 0.0, 0.7520000357180834, 0.0, 0.0, 0.0, 0.0, 0.0, 1.6879227405369513E9, 0.0, 2023-06-28 12:25:40.536
25.0, -239.04505541780964, -294.50403186073527, -135.77706789132208, -143.87769119534642, -0.01600000075995922, 0.0, 0.7520000357180834, 0.0, 0.0, 0.0, 0.0, 0.0, 1.6879227405505655E9, 0.0, 2023-06-28 12:25:40.550
25.0, -146.6396073126234, -193.43697545817122, 4.629996145144105, -35.72352437674999, -0.01600000075995922, 0.0, 0.7520000357180834, 0.0, 0.0, 0.0, 0.0, 0.0, 1.6879227405505655E9, 0.0, 2023-06-28 12:25:40.550
26.0, -162.51548262452707, -214.61602890724316, -166.17123483121395, -161.76563268341124, -0.01600000075995922, 0.0, 0.7520000357180834, 0.0, 0.0, 0.0, 0.0, 0.0, 1.6879227405662904E9, 0.0, 2023-06-28 12:25:40.566
26.0, -255.11166562745348, -292.7200995818712, -192.66842601727694, -190.11407434754074, -0.01600000075995922, 0.0, 0.7520000357180834, 0.0, 0.0, 0.0, 0.0, 0.0, 1.6879227405662904E9, 0.0, 2023-06-28 12:25:40.566
27.0, -155.26755651040003, -217.52193117281422, -2.6852481681853533, -41.92053860332817, -0.01600000075995922, 0.0, 0.7520000357180834, 0.0, 0.0, 0.0, 0.0, 0.0, 1.6879227405669403E9, 0.0, 2023-06-28 12:25:40.566
27.0, -101.89918414270505, -169.01916864747182, -70.5494727641344, -94.58206987939775, -0.01600000075995922, 0.0, 0.7520000357180834, 0.0, 0.0, 0.0, 0.0, 0.0, 1.6879227405669403E9, 0.0, 2023-06-28 12:25:40.566
28.0, -223.84610199788585, -280.2250938299112, -224.24440134316683, -208.92577112466097, -0.01600000075995922, 0.0, 0.7520000357180834, 0.0, 0.0, 0.0, 0.0, 0.0, 1.6879227405805955E9, 0.0, 2023-06-28 12:25:40.580
28.0, -205.67766801314428, -251.48770257038996, -54.20237005781382, -80.25451314914972, -0.01600000075995922, 0.0, 0.7520000357180834, 0.0, 0.0, 0.0, 0.0, 0.0, 1.6879227405805955E9, 0.0, 2023-06-28 12:25:40.580
29.0, -133.64719486655667, -153.55842223064974, -11.65352826192975, -48.480323125608265, -0.01600000075995922, 0.0, 0.7520000357180834, 0.0, 0.0, 0.0, 0.0, 0.0, 1.6879227405962343E9, 0.0, 2023-06-28 12:25:40.596
29.0, -192.09809127403423, -249.0231084995903, -214.4383836593479, -203.91804508399218, -0.01600000075995922, 0.0, 0.7520000357180834, 0.0, 0.0, 0.0, 0.0, 0.0, 1.6879227405962343E9, 0.0, 2023-06-28 12:25:40.596
30.0, -224.7137587876059, -279.4509345390834, -124.72192362230271, -135.1338050989434, -0.01600000075995922, 0.0, 0.8800000417977571, 0.0, 0.0, 0.0, 0.0, 0.0, 1.6879227405969563E9, 0.0, 2023-06-28 12:25:40.596
30.0, -139.54501709667966, -183.51876077568159, 17.68598689045757, -26.437352786771953, -0.01600000075995922, 0.0, 0.8800000417977571, 0.0, 0.0, 0.0, 0.0, 0.0, 1.6879227405969563E9, 0.0, 2023-06-28 12:25:40.596
31.0, -156.78969579236582, -208.4900727798231, -159.10656381491572, -157.36377043556422, -0.01600000075995922, 0.01600000075995922, 0.8800000417977571, 0.0, 0.0, 0.0, 0.0, 0.0, 1.6879227406269147E9, 0.0, 2023-06-28 12:25:40.626
31.0, -228.07966874772683, -287.6824543415569, -186.5013309903443, -185.8692878978327, -0.01600000075995922, 0.01600000075995922, 0.8800000417977571, 0.0, 0.0, 0.0, 0.0, 0.0, 1.6879227406269147E9, 0.0, 2023-06-28 12:25:40.626
32.0, -172.62443220475689, -207.96274688607082, -8.530711798928678, -46.73752974625677, -0.03200000151991844, 0.01600000075995922, 0.8800000417977571, 0.0, 0.0, 0.0, 0.0, 0.0, 1.687922740627658E9, 0.0, 2023-06-28 12:25:40.627
32.0, -142.58181586069986, -151.69969195267186, -75.87509030103683, -99.54491712059826, -0.03200000151991844, 0.01600000075995922, 0.8800000417977571, 0.0, 0.0, 0.0, 0.0, 0.0, 1.687922740627658E9, 0.0, 2023-06-28 12:25:40.627
33.0, -249.35221969569102, -263.993928022217, -230.0337664745748, -218.07730631623417, -0.03200000151991844, 0.01600000075995922, 0.8800000417977571, 0.0, 0.0, 0.0, 0.0, 0.0, 1.6879227406283913E9, 0.0, 2023-06-28 12:25:40.628
33.0, -205.10172341996804, -217.1591608771123, -49.665871411561966, -82.32267782464623, -0.03200000151991844, 0.01600000075995922, 0.8800000417977571, 0.0, 0.0, 0.0, 0.0, 0.0, 1.6879227406283913E9, 0.0, 2023-06-28 12:25:40.628
34.0, -124.29370507737622, -125.116483067628, -4.951627541333437, -49.669611311517656, -0.03200000151991844, 0.01600000075995922, 0.8800000417977571, 0.0, 0.0, 0.0, 0.0, 0.0, 1.6879227406405268E9, 0.0, 2023-06-28 12:25:40.640
34.0, -193.02184656308964, -227.3840473559685, -209.01552872359753, -198.52510934788734, -0.03200000151991844, 0.01600000075995922, 0.8800000417977571, 0.0, 0.0, 0.0, 0.0, 0.0, 1.6879227406405268E9, 0.0, 2023-06-28 12:25:40.640
35.0, -241.41989188967273, -270.3779372465797, -127.64652538765222, -139.18411675095558, -0.03200000151991844, 0.01600000075995922, 0.8800000417977571, 0.0, 0.0, 0.0, 0.0, 0.0, 1.6879227406562119E9, 0.0, 2023-06-28 12:25:40.656
35.0, -163.77208900963888, -149.45201207930222, 20.92474025208503, -29.952858745120466, -0.03200000151991844, 0.01600000075995922, 0.8800000417977571, 0.0, 0.0, 0.0, 0.0, 0.0, 1.6879227406562119E9, 0.0, 2023-06-28 12:25:40.656
36.0, -161.56180813582614, -172.7702883030288, -150.82642531301826, -155.50504015758634, -0.03200000151991844, 0.01600000075995922, 0.8800000417977571, 0.0, 0.0, 0.0, 0.0, 0.0, 1.6879227406569283E9, 0.0, 2023-06-28 12:25:40.656
36.0, -252.7667483552359, -272.1057710261084, -186.92019978538156, -178.92055378016084, -0.03200000151991844, 0.01600000075995922, 0.8800000417977571, 0.0, 0.0, 0.0, 0.0, 0.0, 1.6879227406569283E9, 0.0, 2023-06-28 12:25:40.656
37.0, -184.71178886154667, -181.20002280315384, -3.706240856088698, -44.916198467835784, -0.03200000151991844, 0.01600000075995922, 0.8800000417977571, 0.0, 0.0, 0.0, 0.0, 0.0, 1.6879227406704624E9, 0.0, 2023-06-28 12:25:40.670
37.0, -109.86891094828025, -129.08825682057068, -64.84238543175161, -93.57229689136147, -0.03200000151991844, 0.01600000075995922, 0.8800000417977571, 0.0, 0.0, 0.0, 0.0, 0.0, 1.6879227406704624E9, 0.0, 2023-06-28 12:25:40.670
38.0, -228.28536324528977, -254.90971102984622, -220.01083459332585, -201.18417821638286, -0.03200000151991844, 0.01600000075995922, 0.8800000417977571, 0.0, 0.0, 0.0, 0.0, 0.0, 1.6879227406863208E9, 0.0, 2023-06-28 12:25:40.686
38.0, -210.45726015651599, -227.85901465034112, -53.678784064017236, -83.1903346143663, -0.03200000151991844, 0.01600000075995922, 0.8800000417977571, 0.0, 0.0, 0.0, 0.0, 0.0, 1.6879227406863208E9, 0.0, 2023-06-28 12:25:40.686
39.0, -127.77555193612352, -131.25365889491513, -4.252266249619424, -43.37909958604723, -0.03200000151991844, 0.01600000075995922, 0.8800000417977571, 0.0, 0.0, 0.0, 0.0, 0.0, 1.687922740687222E9, 0.0, 2023-06-28 12:25:40.687
39.0, -210.64799505425617, -213.0789300254546, -210.63490540441126, -199.91635213140398, -0.03200000151991844, 0.01600000075995922, 0.8800000417977571, 0.0, 0.0, 0.0, 0.0, 0.0, 1.687922740687222E9, 0.0, 2023-06-28 12:25:40.687
40.0, -273.1753824134357, -271.2156748366542, -134.08289321139455, -140.38088473677635, -0.03200000151991844, 0.01600000075995922, 0.944000044837594, 0.0, 0.0, 0.0, 0.0, 0.0, 1.6879227407004097E9, 0.0, 2023-06-28 12:25:40.700
40.0, -143.04182355524972, -135.96593283908442, 20.18050016090274, -26.643047284334898, -0.03200000151991844, 0.01600000075995922, 0.944000044837594, 0.0, 0.0, 0.0, 0.0, 0.0, 1.6879227407004097E9, 0.0, 2023-06-28 12:25:40.700
41.0, -128.4524738281034, -160.41739874938503, -144.53217368759215, -142.46026911213994, -0.03200000151991844, 0.01600000075995922, 0.944000044837594, 0.0, 0.0, 0.0, 0.0, 0.0, 1.6879227407161405E9, 0.0, 2023-06-28 12:25:40.716
41.0, -246.1359057337977, -278.35888375202194, -181.77409744635224, -181.7553979465738, -0.03200000151991844, 0.01600000075995922, 0.944000044837594, 0.0, 0.0, 0.0, 0.0, 0.0, 1.6879227407161405E9, 0.0, 2023-06-28 12:25:40.716
42.0, -184.64073076238856, -201.4104421637021, -1.9223085772246122, -44.026102278381586, -0.03200000151991844, 0.01600000075995922, 0.944000044837594, 0.0, 0.0, 0.0, 0.0, 0.0, 1.6879227407168264E9, 0.0, 2023-06-28 12:25:40.716
42.0, -128.27295863023028, -149.4557519792579, -68.44764898903668, -89.4135281406343, -0.03200000151991844, 0.01600000075995922, 0.944000044837594, 0.0, 0.0, 0.0, 0.0, 0.0, 1.6879227407168264E9, 0.0, 2023-06-28 12:25:40.716
43.0, -244.9540973477997, -266.2528275954537, -227.83096540067345, -215.4331970475614, -0.03200000151991844, 0.01600000075995922, 0.944000044837594, 0.0, 0.0, 0.0, 0.0, 0.0, 1.687922740730854E9, 0.0, 2023-06-28 12:25:40.730
43.0, -243.2786221676506, -230.04685612441972, -64.37489793729037, -91.85194291174412, -0.03200000151991844, 0.01600000075995922, 0.944000044837594, 0.0, 0.0, 0.0, 0.0, 0.0, 1.687922740730854E9, 0.0, 2023-06-28 12:25:40.730
44.0, -125.8569832588546, -135.5657635438256, -10.120169280096889, -48.43544432613999, -0.03200000151991844, 0.01600000075995922, 0.944000044837594, 0.0, 0.0, 0.0, 0.0, 0.0, 1.6879227407461894E9, 0.0, 2023-06-28 12:25:40.746
44.0, -205.09798352001235, -222.8625083095394, -208.55926092900336, -197.5003767600283, -0.03200000151991844, 0.01600000075995922, 0.944000044837594, 0.0, 0.0, 0.0, 0.0, 0.0, 1.6879227407461894E9, 0.0, 2023-06-28 12:25:40.746
45.0, -225.9741050726734, -258.20082299085334, -118.5361290955916, -128.33092707954347, -0.03200000151991844, 0.01600000075995922, 0.944000044837594, 0.0, 0.0, 0.0, 0.0, 0.0, 1.6879227407468913E9, 0.0, 2023-06-28 12:25:40.746
45.0, -134.8215234526433, -147.63816060079262, 23.00786452740431, -26.22417848929763, -0.03200000151991844, 0.01600000075995922, 0.944000044837594, 0.0, 0.0, 0.0, 0.0, 0.0, 1.6879227407468913E9, 0.0, 2023-06-28 12:25:40.746
46.0, -153.5359828309156, -183.2868869784288, -155.39284315891564, -157.52832603361458, -0.03200000151991844, 0.01600000075995922, 0.944000044837594, 0.0, 0.0, 0.0, 0.0, 0.0, 1.687922740760522E9, 0.0, 2023-06-28 12:25:40.760
46.0, -259.8463789713569, -257.52764099882916, -182.44353953842074, -180.6035087602213, -0.03200000151991844, 0.01600000075995922, 0.944000044837594, 0.0, 0.0, 0.0, 0.0, 0.0, 1.687922740760522E9, 0.0, 2023-06-28 12:25:40.760
47.0, -184.04234676947817, -175.3657788722776, 0.9424547888338566, -40.454497820697725, -0.03200000151991844, 0.01600000075995922, 0.944000044837594, 0.0, 0.0, 0.0, 0.0, 0.0, 1.687922740776271E9, 0.0, 2023-06-28 12:25:40.776
47.0, -129.67916101356968, -134.1221621609293, -69.67433617450297, -92.637321902439, -0.03200000151991844, 0.01600000075995922, 0.944000044837594, 0.0, 0.0, 0.0, 0.0, 0.0, 1.687922740776271E9, 0.0, 2023-06-28 12:25:40.776
48.0, -239.52002271218225, -269.05401266226545, -222.93917625863105, -209.99912241194397, -0.03200000151991844, 0.01600000075995922, 0.944000044837594, 0.0, 0.0, 0.0, 0.0, 0.0, 1.6879227407769887E9, 0.0, 2023-06-28 12:25:40.776
48.0, -199.54049218585715, -225.06156948348507, -51.25158899277449, -82.16560202650726, -0.03200000151991844, 0.01600000075995922, 0.944000044837594, 0.0, 0.0, 0.0, 0.0, 0.0, 1.6879227407769887E9, 0.0, 2023-06-28 12:25:40.776
49.0, -111.45462852949277, -113.91174280038103, 1.0172527879476547, -43.296821787022054, -0.03200000151991844, 0.01600000075995922, 0.944000044837594, 0.0, 0.0, 0.0, 0.0, 0.0, 1.6879227407905262E9, 0.0, 2023-06-28 12:25:40.790
49.0, -191.09579808590934, -232.06640210049227, -207.77388193830848, -192.99753721337765, -0.03200000151991844, 0.01600000075995922, 0.944000044837594, 0.0, 0.0, 0.0, 0.0, 0.0, 1.6879227407905262E9, 0.0, 2023-06-28 12:25:40.790
50.0, -251.12493227468804, -256.45802961150184, -126.76016909815371, -133.93329721316695, -0.03200000151991844, 0.01600000075995922, 0.9760000463575125, 0.0, 0.0, 0.0, 0.0, 0.0, 1.687922740806183E9, 0.0, 2023-06-28 12:25:40.806
50.0, -153.34524793317541, -150.0915349717252, 13.557137339375913, -34.94936508592218, -0.03200000151991844, 0.01600000075995922, 0.9760000463575125, 0.0, 0.0, 0.0, 0.0, 0.0, 1.687922740806183E9, 0.0, 2023-06-28 12:25:40.806
51.0, -162.9493110193871, -181.35709860129282, -152.24758729618043, -157.58816443290561, -0.03200000151991844, 0.01600000075995922, 0.9760000463575125, 0.0, 0.0, 0.0, 0.0, 0.0, 1.6879227408069332E9, 0.0, 2023-06-28 12:25:40.806
51.0, -247.07088072272018, -283.4189683920704, -181.8601151453331, -182.83996893372387, -0.03200000151991844, 0.01600000075995922, 0.9760000463575125, 0.0, 0.0, 0.0, 0.0, 0.0, 1.6879227408069332E9, 0.0, 2023-06-28 12:25:40.806
52.0, -180.30992661369964, -188.2908731191419, -1.529619081877172, -42.12249320093542, -0.03200000151991844, 0.01600000075995922, 0.9760000463575125, 0.0, 0.0, 0.0, 0.0, 0.0, 1.6879227408206484E9, 0.0, 2023-06-28 12:25:40.820
52.0, -136.03699093824252, -135.0833164495416, -68.76928038522601, -95.64794136676937, -0.03200000151991844, 0.01600000075995922, 0.9760000463575125, 0.0, 0.0, 0.0, 0.0, 0.0, 1.6879227408206484E9, 0.0, 2023-06-28 12:25:40.820
53.0, -238.59252752317116, -246.8726660250686, -220.38856448885053, -208.55926092900336, -0.03200000151991844, 0.01600000075995922, 0.9760000463575125, 0.0, 0.0, 0.0, 0.0, 0.0, 1.6879227408362412E9, 0.0, 2023-06-28 12:25:40.836
53.0, -215.3453093986027, -240.10718700522557, -56.88387832604349, -82.64804912079126, -0.03200000151991844, 0.01600000075995922, 0.9760000463575125, 0.0, 0.0, 0.0, 0.0, 0.0, 1.6879227408362412E9, 0.0, 2023-06-28 12:25:40.836
54.0, -127.45766043988988, -151.4939974551089, -10.931727570481598, -53.316013768315315, -0.03200000151991844, 0.01600000075995922, 0.9760000463575125, 0.0, 0.0, 0.0, 0.0, 0.0, 1.687922740837057E9, 0.0, 2023-06-28 12:25:40.837
54.0, -203.91617513401434, -221.59468222456053, -216.64492463320494, -202.8746129963547, -0.03200000151991844, 0.01600000075995922, 0.9760000463575125, 0.0, 0.0, 0.0, 0.0, 0.0, 1.687922740837057E9, 0.0, 2023-06-28 12:25:40.837
55.0, -246.45005733007565, -261.7799072484486, -124.46387052536011, -138.51841455884278, -0.03200000151991844, 0.01600000075995922, 0.9760000463575125, 0.0, 0.0, 0.0, 0.0, 0.0, 1.6879227408668027E9, 0.0, 2023-06-28 12:25:40.866
55.0, -148.128087494988, -166.5059558772482, 12.020038457587361, -33.13551360741258, -0.03200000151991844, 0.01600000075995922, 0.9760000463575125, 0.0, 0.0, 0.0, 0.0, 0.0, 1.6879227408668027E9, 0.0, 2023-06-28 12:25:40.866
56.0, -144.54900323739275, -175.2124429740943, -151.94465539976954, -150.58333181589842, -0.03200000151991844, 0.01600000075995922, 0.9760000463575125, 0.0, 0.0, 0.0, 0.0, 0.0, 1.6879227408826115E9, 0.0, 2023-06-28 12:25:40.882
56.0, -259.6593839735724, -255.9905421170406, -183.5729893250391, -180.8690416570753, -0.03200000151991844, 0.01600000075995922, 0.9760000463575125, 0.0, 0.0, 0.0, 0.0, 0.0, 1.6879227408826115E9, 0.0, 2023-06-28 12:25:40.882
57.0, -175.78464766731486, -190.74798739003018, -1.2678260849788785, -45.86239315662533, -0.03200000151991844, 0.01600000075995922, 0.9760000463575125, 0.0, 0.0, 0.0, 0.0, 0.0, 1.6879227408832505E9, 0.0, 2023-06-28 12:25:40.883
57.0, -121.33918411238119, -145.4203999270685, -66.37574441358447, -95.81623686477542, -0.03200000151991844, 0.01600000075995922, 0.9760000463575125, 0.0, 0.0, 0.0, 0.0, 0.0, 1.6879227408832505E9, 0.0, 2023-06-28 12:25:40.883
58.0, -263.08887223294005, -278.9759672447108, -228.06283919792622, -214.47952255886048, -0.03200000151991844, 0.01600000075995922, 0.9760000463575125, 0.0, 0.0, 0.0, 0.0, 0.0, 1.6879227408840332E9, 0.0, 2023-06-28 12:25:40.884
58.0, -212.60770263103768, -262.8532585357316, -62.75926115643233, -89.36864934116602, -0.03200000151991844, 0.01600000075995922, 0.9760000463575125, 0.0, 0.0, 0.0, 0.0, 0.0, 1.6879227408840332E9, 0.0, 2023-06-28 12:25:40.884
59.0, -107.12756428075954, -135.98463233886287, -6.301731425337493, -53.11405917070806, -0.03200000151991844, 0.01600000075995922, 0.9760000463575125, 0.0, 0.0, 0.0, 0.0, 0.0, 1.6879227408848352E9, 0.0, 2023-06-28 12:25:40.884
59.0, -208.47885307995602, -224.43700619088486, -215.09286615159363, -208.60413972847164, -0.03200000151991844, 0.01600000075995922, 0.9760000463575125, 0.0, 0.0, 0.0, 0.0, 0.0, 1.6879227408848352E9, 0.0, 2023-06-28 12:25:40.884
60.0, -249.53921469347551, -266.63803729088977, -120.33128107432276, -139.03826065268368, -0.03200000151991844, 0.01600000075995922, 0.9920000471174717, 0.0, 0.0, 0.0, 0.0, 0.0, 1.6879227408955266E9, 0.0, 2023-06-28 12:25:40.895
60.0, -129.43606751644984, -167.21653686882928, 17.095082697458565, -33.87601379863918, -0.03200000151991844, 0.01600000075995922, 0.9920000471174717, 0.0, 0.0, 0.0, 0.0, 0.0, 1.6879227408955266E9, 0.0, 2023-06-28 12:25:40.895
61.0, -174.0306345880963, -175.40691777179018, -155.06373196281493, -159.63762960862368, -0.03200000151991844, 0.01600000075995922, 0.9920000471174717, 0.0, 0.0, 0.0, 0.0, 0.0, 1.68792274091049E9, 0.0, 2023-06-28 12:25:40.910
61.0, -270.31061904737726, -284.02483218489215, -189.45211205538362, -190.36090774461627, -0.03200000151991844, 0.01600000075995922, 0.9920000471174717, 0.0, 0.0, 0.0, 0.0, 0.0, 1.68792274091049E9, 0.0, 2023-06-28 12:25:40.910
62.0, -171.6595380161889, -204.3724429286085, -5.348056936636567, -44.5384685723111, -0.03200000151991844, 0.01600000075995922, 0.9920000471174717, 0.0, 0.0, 0.0, 0.0, 0.0, 1.6879227409261942E9, 0.0, 2023-06-28 12:25:40.926
62.0, -130.06811060896143, -162.2050709282048, -78.4818005701527, -107.27903022896498, -0.03200000151991844, 0.01600000075995922, 0.9920000471174717, 0.0, 0.0, 0.0, 0.0, 0.0, 1.6879227409261942E9, 0.0, 2023-06-28 12:25:40.926
63.0, -260.2802073662169, -297.32765632728115, -231.2193147605285, -219.76026129629463, -0.03200000151991844, 0.01600000075995922, 0.9920000471174717, 0.0, 0.0, 0.0, 0.0, 0.0, 1.6879227409269068E9, 0.0, 2023-06-28 12:25:40.926
63.0, -215.83897619275376, -257.7370753963478, -65.65768362209201, -96.81105025298893, -0.03200000151991844, 0.01600000075995922, 0.9920000471174717, 0.0, 0.0, 0.0, 0.0, 0.0, 1.6879227409269068E9, 0.0, 2023-06-28 12:25:40.926
64.0, -137.7124661183916, -129.301431118045, -15.961893010884523, -60.145071087405086, -0.03200000151991844, 0.01600000075995922, 0.9920000471174717, 0.0, 0.0, 0.0, 0.0, 0.0, 1.6879227409404883E9, 0.0, 2023-06-28 12:25:40.940
64.0, -205.24383961828426, -231.73355100443587, -212.25802198518068, -204.90911857225, -0.03200000151991844, 0.01600000075995922, 0.9920000471174717, 0.0, 0.0, 0.0, 0.0, 0.0, 1.6879227409404883E9, 0.0, 2023-06-28 12:25:40.940
65.0, -242.25388957979158, -282.8617232986726, -129.15370506979525, -140.0629932405427, -0.03200000151991844, 0.01600000075995922, 0.9920000471174717, 0.0, 0.0, 0.0, 0.0, 0.0, 1.6879227409561677E9, 0.0, 2023-06-28 12:25:40.956
65.0, -139.73949189437553, -163.28964191535488, 13.646894938312471, -40.447018020786345, -0.03200000151991844, 0.01600000075995922, 0.9920000471174717, 0.0, 0.0, 0.0, 0.0, 0.0, 1.6879227409561677E9, 0.0, 2023-06-28 12:25:40.956
66.0, -158.00890317792073, -189.05007281014696, -152.12791049759835, -158.7400536192581, -0.03200000151991844, 0.01600000075995922, 0.9920000471174717, 0.0, 0.0, 0.0, 0.0, 0.0, 1.6879227409569228E9, 0.0, 2023-06-28 12:25:40.956
66.0, -265.5235471040942, -275.45672138640657, -184.68747951183468, -189.50821055471897, -0.03200000151991844, 0.01600000075995922, 0.9920000471174717, 0.0, 0.0, 0.0, 0.0, 0.0, 1.6879227409569228E9, 0.0, 2023-06-28 12:25:40.956
67.0, -196.69816821953282, -223.10934170661494, -17.573789891786873, -55.99378213658929, -0.03200000151991844, 0.01600000075995922, 0.9920000471174717, 0.0, 0.0, 0.0, 0.0, 0.0, 1.6879227409868157E9, 0.0, 2023-06-28 12:25:40.986
67.0, -127.52871853904799, -172.8824853016995, -82.86496331822127, -105.39038075134158, -0.03200000151991844, 0.01600000075995922, 0.9920000471174717, 0.0, 0.0, 0.0, 0.0, 0.0, 1.6879227409868157E9, 0.0, 2023-06-28 12:25:40.986
68.0, -242.69893767451867, -283.87149628670886, -231.9672947516665, -226.256467519328, -0.03200000151991844, 0.01600000075995922, 0.9920000471174717, 0.0, 0.0, 0.0, 0.0, 0.0, 1.6879227409873536E9, 0.0, 2023-06-28 12:25:40.987
68.0, -218.55040366062894, -240.57093459973112, -60.137591287493706, -95.3038705708459, -0.03200000151991844, 0.01600000075995922, 0.9920000471174717, 0.0, 0.0, 0.0, 0.0, 0.0, 1.6879227409873536E9, 0.0, 2023-06-28 12:25:40.987
69.0, -121.39154271176085, -152.96003823773935, -9.114136192016304, -52.35485947970301, -0.03200000151991844, 0.01600000075995922, 0.9920000471174717, 0.0, 0.0, 0.0, 0.0, 0.0, 1.6879227410017312E9, 0.0, 2023-06-28 12:25:41.001
69.0, -226.81558256270364, -242.85601347265765, -219.2890339018777, -212.09346638713032, -0.03200000151991844, 0.01600000075995922, 0.9920000471174717, 0.0, 0.0, 0.0, 0.0, 0.0, 1.6879227410017312E9, 0.0, 2023-06-28 12:25:41.001
70.0, -260.8898110589944, -258.38033818872645, -128.55532107688487, -141.0316273290664, -0.03200000151991844, 0.01600000075995922, 0.9920000471174717, 0.0, 0.0, 0.0, 0.0, 0.0, 1.6879227410169427E9, 0.0, 2023-06-28 12:25:41.016
70.0, -141.88619446894154, -153.88379352679476, 19.477398969233036, -32.63062711339444, -0.03200000151991844, 0.01600000075995922, 0.9920000471174717, 0.0, 0.0, 0.0, 0.0, 0.0, 1.6879227410169427E9, 0.0, 2023-06-28 12:25:41.016
71.0, -144.79957653442398, -191.2977526835166, -153.9978604754433, -156.87384354136884, -0.03200000151991844, 0.01600000075995922, 0.9920000471174717, 0.0, 0.0, 0.0, 0.0, 0.0, 1.6879227410175667E9, 0.0, 2023-06-28 12:25:41.017
71.0, -244.1687183571048, -294.8668021564372, -185.58879540115595, -184.82211591023952, -0.03200000151991844, 0.01600000075995922, 0.9920000471174717, 0.0, 0.0, 0.0, 0.0, 0.0, 1.6879227410175667E9, 0.0, 2023-06-28 12:25:41.017
72.0, -171.0985530228354, -218.88325475668535, -6.642062321305275, -51.19175059348345, -0.03200000151991844, 0.01600000075995922, 0.9920000471174717, 0.0, 0.0, 0.0, 0.0, 0.0, 1.687922741018337E9, 0.0, 2023-06-28 12:25:41.018
72.0, -144.44802593858913, -189.99252759898081, -83.87847620621324, -107.00975743215531, -0.03200000151991844, 0.01600000075995922, 0.9920000471174717, 0.0, 0.0, 0.0, 0.0, 0.0, 1.687922741018337E9, 0.0, 2023-06-28 12:25:41.018
73.0, -240.3951593018137, -254.26270833751187, -224.7343282373622, -213.90357796568424, -0.03200000151991844, 0.01600000075995922, 0.9920000471174717, 0.0, 0.0, 0.0, 0.0, 0.0, 1.687922741030475E9, 0.0, 2023-06-28 12:25:41.030
73.0, -201.9639473571442, -222.18932631751522, -49.03008841909468, -78.36212377157062, -0.03200000151991844, 0.01600000075995922, 0.9920000471174717, 0.0, 0.0, 0.0, 0.0, 0.0, 1.687922741030475E9, 0.0, 2023-06-28 12:25:41.030
74.0, -116.84382436564192, -129.02467852132395, -11.616129262372851, -56.943716725334525, -0.03200000151991844, 0.01600000075995922, 0.9920000471174717, 0.0, 0.0, 0.0, 0.0, 0.0, 1.6879227410462148E9, 0.0, 2023-06-28 12:25:41.046
74.0, -199.30861838860437, -232.36559409694746, -209.59895311668515, -198.59242754708976, -0.03200000151991844, 0.01600000075995922, 0.9920000471174717, 0.0, 0.0, 0.0, 0.0, 0.0, 1.6879227410462148E9, 0.0, 2023-06-28 12:25:41.046
75.0, -258.42147708823904, -301.1199148823507, -133.78370121493936, -146.66765656229109, -0.03200000151991844, 0.01600000075995922, 0.9920000471174717, 0.0, 0.0, 0.0, 0.0, 0.0, 1.6879227410469015E9, 0.0, 2023-06-28 12:25:41.046
75.0, -152.95629833778366, -178.4399766358547, 7.075890716165304, -42.77697569318116, -0.03200000151991844, 0.01600000075995922, 0.9920000471174717, 0.0, 0.0, 0.0, 0.0, 0.0, 1.6879227410469015E9, 0.0, 2023-06-28 12:25:41.046
76.0, -155.73130410490558, -181.97418209398165, -150.42251611780375, -157.99207362812012, -0.03200000151991844, 0.01600000075995922, 0.9920000471174717, 0.0, 0.0, 0.0, 0.0, 0.0, 1.687922741060897E9, 0.0, 2023-06-28 12:25:41.060
76.0, -257.17983030295, -301.5799225769006, -192.86290081497282, -183.63282772433013, -0.03200000151991844, 0.01600000075995922, 0.9920000471174717, 0.0, 0.0, 0.0, 0.0, 0.0, 1.687922741060897E9, 0.0, 2023-06-28 12:25:41.060
77.0, -178.86632523080334, -215.54352409625426, -13.351442841812968, -55.67963054031134, -0.03200000151991844, 0.01600000075995922, 0.9920000471174717, 0.0, 0.0, 0.0, 0.0, 0.0, 1.6879227410761683E9, 0.0, 2023-06-28 12:25:41.076
77.0, -114.97761428775266, -152.0138435489498, -74.95507491193712, -105.26322415284812, -0.03200000151991844, 0.01600000075995922, 0.9920000471174717, 0.0, 0.0, 0.0, 0.0, 0.0, 1.6879227410761683E9, 0.0, 2023-06-28 12:25:41.076
78.0, -236.00451675383374, -254.76385493157431, -217.93519011791795, -210.4740897063166, -0.03200000151991844, 0.01600000075995922, 0.9920000471174717, 0.0, 0.0, 0.0, 0.0, 0.0, 1.687922741076928E9, 0.0, 2023-06-28 12:25:41.076
78.0, -218.3858480625786, -263.6947360257618, -58.44715650752187, -87.31918416544795, -0.03200000151991844, 0.01600000075995922, 0.9920000471174717, 0.0, 0.0, 0.0, 0.0, 0.0, 1.687922741076928E9, 0.0, 2023-06-28 12:25:41.076
79.0, -147.09587510721758, -151.37058075657114, -19.152027673088014, -57.00729502458125, -0.03200000151991844, 0.01600000075995922, 0.9920000471174717, 0.0, 0.0, 0.0, 0.0, 0.0, 1.6879227410904996E9, 0.0, 2023-06-28 12:25:41.090
79.0, -201.47028056299314, -227.52242365432903, -213.89609816577286, -205.49628286529332, -0.03200000151991844, 0.01600000075995922, 0.9920000471174717, 0.0, 0.0, 0.0, 0.0, 0.0, 1.6879227410904996E9, 0.0, 2023-06-28 12:25:41.090
80.0, -222.2304652170278, -265.65070370258763, -118.73434379324317, -132.10822603479028, -0.03200000151991844, 0.01600000075995922, 0.9920000471174717, 0.0, 0.0, 0.0, 0.0, 0.0, 1.6879227411062768E9, 0.0, 2023-06-28 12:25:41.106
80.0, -131.32471699407324, -162.0180759304203, 19.70553286653012, -29.79578294698149, -0.03200000151991844, 0.01600000075995922, 0.9920000471174717, 0.0, 0.0, 0.0, 0.0, 0.0, 1.6879227411062768E9, 0.0, 2023-06-28 12:25:41.106
81.0, -161.32993433857337, -204.35000352887437, -164.6303960494697, -163.91607515793294, -0.03200000151991844, 0.01600000075995922, 0.9920000471174717, 0.0, 0.0, 0.0, 0.0, 0.0, 1.687922741106976E9, 0.0, 2023-06-28 12:25:41.106
81.0, -255.11540552740917, -294.6872869585641, -189.7550439517945, -185.61497470084578, -0.03200000151991844, 0.01600000075995922, 0.9920000471174717, 0.0, 0.0, 0.0, 0.0, 0.0, 1.687922741106976E9, 0.0, 2023-06-28 12:25:41.106
82.0, -172.66931100422516, -191.72784117842093, -1.8662100778892636, -44.044801778160036, -0.03200000151991844, 0.01600000075995922, 0.9920000471174717, 0.0, 0.0, 0.0, 0.0, 0.0, 1.687922741120504E9, 0.0, 2023-06-28 12:25:41.120
82.0, -140.89138108072802, -162.63141952315345, -77.28503258433193, -101.3438089992851, -0.03200000151991844, 0.01600000075995922, 0.9920000471174717, 0.0, 0.0, 0.0, 0.0, 0.0, 1.687922741120504E9, 0.0, 2023-06-28 12:25:41.120
83.0, -248.12553251022473, -269.6673562549986, -226.98948791064322, -212.9873024765402, -0.03200000151991844, 0.01600000075995922, 0.9920000471174717, 0.0, 0.0, 0.0, 0.0, 0.0, 1.6879227411363084E9, 0.0, 2023-06-28 12:25:41.136
83.0, -200.30717167677358, -221.18703312939033, -49.59107341244817, -81.50737963430583, -0.03200000151991844, 0.01600000075995922, 0.9920000471174717, 0.0, 0.0, 0.0, 0.0, 0.0, 1.6879227411363084E9, 0.0, 2023-06-28 12:25:41.136
84.0, -106.3646246897988, -115.38152348296717, 5.482693335041404, -39.74765672907233, -0.03200000151991844, 0.01600000075995922, 0.9920000471174717, 0.0, 0.0, 0.0, 0.0, 0.0, 1.6879227411369765E9, 0.0, 2023-06-28 12:25:41.136
84.0, -191.49596738116816, -221.6433009239845, -206.248002756387, -196.71499776933342, -0.03200000151991844, 0.01600000075995922, 0.9920000471174717, 0.0, 0.0, 0.0, 0.0, 0.0, 1.6879227411369765E9, 0.0, 2023-06-28 12:25:41.136
85.0, -239.26196961523965, -272.472281221766, -119.90493247937411, -134.41200440749526, -0.03200000151991844, 0.01600000075995922, 0.9920000471174717, 0.0, 0.0, 0.0, 0.0, 0.0, 1.6879227411505048E9, 0.0, 2023-06-28 12:25:41.150
85.0, -162.2050709282048, -160.0995072531514, 18.55738358013332, -30.850434734486043, -0.03200000151991844, 0.01600000075995922, 0.9920000471174717, 0.0, 0.0, 0.0, 0.0, 0.0, 1.6879227411505048E9, 0.0, 2023-06-28 12:25:41.150
86.0, -160.49219674849883, -192.41598277026787, -162.99605976883322, -155.23202746082097, -0.03200000151991844, 0.01600000075995922, 0.9920000471174717, 0.0, 0.0, 0.0, 0.0, 0.0, 1.6879227411664572E9, 0.0, 2023-06-28 12:25:41.166
86.0, -267.83480527671054, -287.94424733845517, -191.6810924289748, -190.72741794027388, -0.03200000151991844, 0.01600000075995922, 0.9920000471174717, 0.0, 0.0, 0.0, 0.0, 0.0, 1.6879227411664572E9, 0.0, 2023-06-28 12:25:41.166
87.0, -184.54349336354062, -206.54158490290865, -7.64061560947448, -48.854313121177256, -0.03200000151991844, 0.01600000075995922, 0.9920000471174717, 0.0, 0.0, 0.0, 0.0, 0.0, 1.687922741167061E9, 0.0, 2023-06-28 12:25:41.167
87.0, -106.18510949192569, -126.90415524644777, -64.63295103423297, -91.39567511714995, -0.03200000151991844, 0.01600000075995922, 0.9920000471174717, 0.0, 0.0, 0.0, 0.0, 0.0, 1.687922741167061E9, 0.0, 2023-06-28 12:25:41.167
88.0, -234.21310467505828, -260.23158866679296, -216.31955333705992, -207.11191964615136, -0.03200000151991844, 0.01600000075995922, 0.9920000471174717, 0.0, 0.0, 0.0, 0.0, 0.0, 1.687922741180512E9, 0.0, 2023-06-28 12:25:41.180
88.0, -224.9381527849473, -239.56116161169484, -58.75382830388844, -84.47312029916793, -0.03200000151991844, 0.01600000075995922, 0.9920000471174717, 0.0, 0.0, 0.0, 0.0, 0.0, 1.687922741180512E9, 0.0, 2023-06-28 12:25:41.180
89.0, -137.94807981560007, -148.6030547893606, -14.11438243277371, -53.0617005713284, -0.03200000151991844, 0.01600000075995922, 0.9920000471174717, 0.0, 0.0, 0.0, 0.0, 0.0, 1.6879227411963568E9, 0.0, 2023-06-28 12:25:41.196
89.0, -189.1435703090392, -238.1736587281339, -212.5497341817245, -201.45719091314822, -0.03200000151991844, 0.01600000075995922, 0.9920000471174717, 0.0, 0.0, 0.0, 0.0, 0.0, 1.6879227411963568E9, 0.0, 2023-06-28 12:25:41.196
90.0, -251.86917236587033, -264.8054863126017, -121.93195825535804, -131.81651383824646, -0.03200000151991844, 0.01600000075995922, 0.9920000471174717, 0.0, 0.0, 0.0, 0.0, 0.0, 1.6879227411970289E9, 0.0, 2023-06-28 12:25:41.197
90.0, -142.63043456012383, -160.91854534344748, 17.394274693913758, -33.195352006703615, -0.03200000151991844, 0.01600000075995922, 0.9920000471174717, 0.0, 0.0, 0.0, 0.0, 0.0, 1.6879227411970289E9, 0.0, 2023-06-28 12:25:41.197
91.0, -155.32365500973538, -193.3285183594562, -161.67587508447468, -161.32058458868414, -0.03200000151991844, 0.01600000075995922, 0.9920000471174717, 0.0, 0.0, 0.0, 0.0, 0.0, 1.687922741210678E9, 0.0, 2023-06-28 12:25:41.210
91.0, -234.9498649663292, -284.0472715846263, -185.52521710190922, -180.79798355791718, -0.03200000151991844, 0.01600000075995922, 0.9920000471174717, 0.0, 0.0, 0.0, 0.0, 0.0, 1.687922741210678E9, 0.0, 2023-06-28 12:25:41.210
92.0, -190.8489646888338, -218.4606460616924, -8.612989597953856, -50.473689801990986, -0.03200000151991844, 0.01600000075995922, 0.9920000471174717, 0.0, 0.0, 0.0, 0.0, 0.0, 1.6879227412262547E9, 0.0, 2023-06-28 12:25:41.226
92.0, -123.65418218495324, -150.78715636348352, -77.64780288003385, -102.36106178723276, -0.03200000151991844, 0.01600000075995922, 0.9920000471174717, 0.0, 0.0, 0.0, 0.0, 0.0, 1.6879227412262547E9, 0.0, 2023-06-28 12:25:41.226
93.0, -221.74801812274382, -251.85047286609188, -215.8445860426873, -202.30240830313414, -0.03200000151991844, 0.01600000075995922, 0.9920000471174717, 0.0, 0.0, 0.0, 0.0, 0.0, 1.6879227412268996E9, 0.0, 2023-06-28 12:25:41.226
93.0, -207.3755825930275, -242.88219277234748, -56.67444392852485, -84.42824149969965, -0.03200000151991844, 0.01600000075995922, 0.9920000471174717, 0.0, 0.0, 0.0, 0.0, 0.0, 1.6879227412268996E9, 0.0, 2023-06-28 12:25:41.226
94.0, -144.74721793504432, -152.1671794471331, -14.952120022848248, -53.6563446642831, -0.03200000151991844, 0.01600000075995922, 0.9920000471174717, 0.0, 0.0, 0.0, 0.0, 0.0, 1.6879227412405365E9, 0.0, 2023-06-28 12:25:41.240
94.0, -244.03408195869997, -250.66866448009387, -226.19662912003696, -211.6932970918715, -0.03200000151991844, 0.01600000075995922, 0.9920000471174717, 0.0, 0.0, 0.0, 0.0, 0.0, 1.6879227412405365E9, 0.0, 2023-06-28 12:25:41.240
95.0, -243.12154636951163, -262.34089224180207, -128.095313382335, -144.90616368316114, -0.03200000151991844, 0.01600000075995922, 0.9920000471174717, 0.0, 0.0, 0.0, 0.0, 0.0, 1.68792274125628E9, 0.0, 2023-06-28 12:25:41.256
95.0, -101.5850325464271, -182.64736408600584, 22.18508653715253, -28.22128506563604, -0.03200000151991844, 0.01600000075995922, 0.9920000471174717, 0.0, 0.0, 0.0, 0.0, 0.0, 1.68792274125628E9, 0.0, 2023-06-28 12:25:41.256
96.0, -139.42908019805327, -184.09844526881352, -151.82871850114316, -154.7794995661825, -0.03200000151991844, 0.01600000075995922, 0.9920000471174717, 0.0, 0.0, 0.0, 0.0, 0.0, 1.6879227412570736E9, 0.0, 2023-06-28 12:25:41.257
96.0, -248.63415890419856, -277.39772946340963, -184.47804511431605, -184.47056531440467, -0.03200000151991844, 0.01600000075995922, 0.9920000471174717, 0.0, 0.0, 0.0, 0.0, 0.0, 1.6879227412570736E9, 0.0, 2023-06-28 12:25:41.257
97.0, -182.59500548662618, -197.0048400158994, 0.7068410916253924, -41.277275810949504, -0.03200000151991844, 0.01600000075995922, 0.9920000471174717, 0.0, 0.0, 0.0, 0.0, 0.0, 1.6879227412705696E9, 0.0, 2023-06-28 12:25:41.270
97.0, -150.58520176587626, -158.91769886715338, -77.76373977866024, -100.3789148107171, -0.03200000151991844, 0.01600000075995922, 0.9920000471174717, 0.0, 0.0, 0.0, 0.0, 0.0, 1.6879227412705696E9, 0.0, 2023-06-28 12:25:41.270
98.0, -254.16173103870824, -276.79934547049925, -231.63444365561008, -221.08044598065317, -0.03200000151991844, 0.01600000075995922, 0.9920000471174717, 0.0, 0.0, 0.0, 0.0, 0.0, 1.687922741286168E9, 0.0, 2023-06-28 12:25:41.286
98.0, -184.76040756097063, -241.3189145908691, -54.591319653205574, -83.67278170865029, -0.03200000151991844, 0.01600000075995922, 0.9920000471174717, 0.0, 0.0, 0.0, 0.0, 0.0, 1.687922741286168E9, 0.0, 2023-06-28 12:25:41.286
99.0, -102.32927263760939, -141.9422929682769, -4.1251096511259675, -49.01512881927192, -0.03200000151991844, 0.01600000075995922, 0.9920000471174717, 0.0, 0.0, 0.0, 0.0, 0.0, 1.6879227412869675E9, 0.0, 2023-06-28 12:25:41.286
99.0, -189.73073460208252, -228.8687876383774, -208.89959182497114, -193.0947746122256, -0.03200000151991844, 0.01600000075995922, 0.9920000471174717, 0.0, 0.0, 0.0, 0.0, 0.0, 1.6879227412869675E9, 0.0, 2023-06-28 12:25:41.286
100.0, -239.13855291670188, -264.1846629199572, -119.22801058739424, -129.57257386483252, -0.03200000151991844, 0.01600000075995922, 0.9920000471174717, 0.0, 0.0, 0.0, 0.0, 0.0, 1.6879227413012168E9, 0.0, 2023-06-28 12:25:41.301
100.0, -136.79993052920327, -167.81492086173967, 18.624701779335737, -30.487664438784122, -0.03200000151991844, 0.01600000075995922, 0.9920000471174717, 0.0, 0.0, 0.0, 0.0, 0.0, 1.6879227413012168E9, 0.0, 2023-06-28 12:25:41.301
0.0, -166.99588277144358, -193.30046910978854, -161.8759597321041, -158.1323198764585, -0.03200000151991844, 0.01600000075995922, 0.9920000471174717, 0.0, 0.0, 0.0, 0.0, 0.0, 1.6879227413019416E9, 0.0, 2023-06-28 12:25:41.301
1.0, -264.20336241973564, -275.55956863518804, -185.56822595139965, -185.09699855698273, -0.03200000151991844, 0.01600000075995922, 0.9920000471174717, 0.0, 0.0, 0.0, 0.0, 0.0, 1.6879227413155906E9, 0.0, 2023-06-28 12:25:41.315
1.0, -191.630603779573, -198.66722554620355, -0.8695267396979034, -44.91058861790225, -0.03200000151991844, 0.01600000075995922, 0.9920000471174717, 0.0, 0.0, 0.0, 0.0, 0.0, 1.6879227413155906E9, 0.0, 2023-06-28 12:25:41.315
2.0, -129.47346651600674, -168.76672540046275, -80.17784520005807, -104.43483631266281, -0.03200000151991844, 0.01600000075995922, 0.9920000471174717, 0.0, 0.0, 0.0, 0.0, 0.0, 1.6879227413311636E9, 0.0, 2023-06-28 12:25:41.331
2.0, -205.7113271127455, -294.60687910951674, -224.69505928782746, -208.09364338451996, -0.03200000151991844, 0.01600000075995922, 0.9920000471174717, 0.0, 0.0, 0.0, 0.0, 0.0, 1.6879227413311636E9, 0.0, 2023-06-28 12:25:41.331
3.0, -202.90266224602237, -259.410680626519, -60.92484022816643, -88.11391290603206, -0.03200000151991844, 0.01600000075995922, 0.9920000471174717, 0.0, 0.0, 0.0, 0.0, 0.0, 1.6879227413318849E9, 0.0, 2023-06-28 12:25:41.331
3.0, -121.91138880560175, -142.28075391426682, -12.508095401804894, -56.07045008568093, -0.03200000151991844, 0.01600000075995922, 0.9920000471174717, 0.0, 0.0, 0.0, 0.0, 0.0, 1.6879227413318849E9, 0.0, 2023-06-28 12:25:41.331
4.0, -221.14589422987774, -222.40811046492308, -222.3052632161416, -208.46015358017758, -0.03200000151991844, 0.01600000075995922, 0.9920000471174717, 0.0, 0.0, 0.0, 0.0, 0.0, 1.687922741345549E9, 0.0, 2023-06-28 12:25:41.345
4.0, -213.0078719262965, -257.6342281475663, -118.93068854091689, -133.28068467089906, -0.03200000151991844, 0.01600000075995922, 0.9920000471174717, 0.0, 0.0, 0.0, 0.0, 0.0, 1.687922741345549E9, 0.0, 2023-06-28 12:25:41.345
5.0, -121.49252001056448, -151.64920330327004, 24.33365906169638, -28.447549012955278, -0.03200000151991844, 0.01600000075995922, 0.9920000471174717, 0.0, 0.0, 0.0, 0.0, 0.0, 1.6879227413611732E9, 0.0, 2023-06-28 12:25:41.361
5.0, -144.06655614310876, -206.92118474841118, -158.08370117703453, -157.6910116816871, -0.03200000151991844, 0.01600000075995922, 0.9920000471174717, 0.0, 0.0, 0.0, 0.0, 0.0, 1.6879227413611732E9, 0.0, 2023-06-28 12:25:41.361
6.0, -232.14867989951745, -290.1676178621128, -185.15683695627376, -181.13644450390711, -0.03200000151991844, 0.01600000075995922, 0.9920000471174717, 0.0, 0.0, 0.0, 0.0, 0.0, 1.6879227413619015E9, 0.0, 2023-06-28 12:25:41.361
6.0, -160.78390894504264, -190.70871844049543, 0.24870334705337882, -46.4850864992477, -0.03200000151991844, 0.01600000075995922, 0.9920000471174717, 0.0, 0.0, 0.0, 0.0, 0.0, 1.6879227413619015E9, 0.0, 2023-06-28 12:25:41.361
7.0, -145.72333182347938, -163.04841836821288, -83.9476643553935, -109.92874934757128, -0.03200000151991844, 0.01600000075995922, 0.9920000471174717, 0.0, 0.0, 0.0, 0.0, 0.0, 1.6879227413755617E9, 0.0, 2023-06-28 12:25:41.375
7.0, -232.07762180035934, -269.4223928079009, -227.0511962599121, -211.66898774215952, -0.03200000151991844, 0.01600000075995922, 0.9920000471174717, 0.0, 0.0, 0.0, 0.0, 0.0, 1.6879227413755617E9, 0.0, 2023-06-28 12:25:41.375
8.0, -206.8594763991423, -241.53395883832127, -54.09952280903235, -83.61107335938141, -0.03200000151991844, 0.01600000075995922, 0.9920000471174717, 0.0, 0.0, 0.0, 0.0, 0.0, 1.6879227413912127E9, 0.0, 2023-06-28 12:25:41.391
8.0, -117.1130971624516, -157.91353572905064, -10.806440921965986, -52.06501723313704, -0.03200000151991844, 0.01600000075995922, 0.9920000471174717, 0.0, 0.0, 0.0, 0.0, 0.0, 1.6879227413912127E9, 0.0, 2023-06-28 12:25:41.391
9.0, -192.8161520655267, -263.55074987746775, -219.900507544633, -210.4497803566046, -0.03200000151991844, 0.01600000075995922, 0.9920000471174717, 0.0, 0.0, 0.0, 0.0, 0.0, 1.68792274139186E9, 0.0, 2023-06-28 12:25:41.391
9.0, -239.44522471306846, -272.6200072700158, -124.61533647356555, -141.42992667434737, -0.03200000151991844, 0.01600000075995922, 0.9920000471174717, 0.0, 0.0, 0.0, 0.0, 0.0, 1.68792274139186E9, 0.0, 2023-06-28 12:25:41.391
10.0, -157.07766808895394, -165.87952263467014, 11.427264314610511, -34.32293184334412, -0.03200000151991844, 0.01600000075995922, 0.9920000471174717, 0.0, 0.0, 0.0, 0.0, 0.0, 1.6879227414055119E9, 0.0, 2023-06-28 12:25:41.405
10.0, -159.22437066351995, -201.48711011279374, -157.0963675887324, -156.6438396940939, -0.03200000151991844, 0.01600000075995922, 0.9920000471174717, 0.0, 0.0, 0.0, 0.0, 0.0, 1.6879227414055119E9, 0.0, 2023-06-28 12:25:41.405
11.0, -260.9159903586842, -293.48490912280977, -187.78972652507946, -181.7348284968175, -0.03200000151991844, 0.01600000075995922, 0.9920000471174717, 0.0, 0.0, 0.0, 0.0, 0.0, 1.6879227414214396E9, 0.0, 2023-06-28 12:25:41.421
11.0, -173.16671769833192, -203.26730249170214, -2.6123201190494, -45.856783306691796, -0.03200000151991844, 0.01600000075995922, 0.9920000471174717, 0.0, 0.0, 0.0, 0.0, 0.0, 1.6879227414214396E9, 0.0, 2023-06-28 12:25:41.421
12.0, -123.68784128455445, -165.3334972411394, -75.55158895486966, -103.49238152382895, -0.03200000151991844, 0.01600000075995922, 0.9920000471174717, 0.0, 0.0, 0.0, 0.0, 0.0, 1.6879227414221184E9, 0.0, 2023-06-28 12:25:41.422
12.0, -244.38189265457913, -294.2815078133717, -235.23409736296162, -222.32396271592006, -0.03200000151991844, 0.01600000075995922, 0.9920000471174717, 0.0, 0.0, 0.0, 0.0, 0.0, 1.6879227414221184E9, 0.0, 2023-06-28 12:25:41.422
13.0, -205.5991301140748, -253.65871449466795, -60.53589063277468, -94.56898022955284, -0.03200000151991844, 0.01600000075995922, 0.9920000471174717, 0.0, 0.0, 0.0, 0.0, 0.0, 1.6879227414354544E9, 0.0, 2023-06-28 12:25:41.435
13.0, -136.3773218342103, -157.51336643379182, -15.701969963964075, -59.541077244561166, -0.03200000151991844, 0.01600000075995922, 0.9920000471174717, 0.0, 0.0, 0.0, 0.0, 0.0, 1.6879227414354544E9, 0.0, 2023-06-28 12:25:41.435
14.0, -218.55040366062894, -262.6419541882351, -222.46981881419197, -207.21102699497715, -0.03200000151991844, 0.01600000075995922, 0.9920000471174717, 0.0, 0.0, 0.0, 0.0, 0.0, 1.6879227414511905E9, 0.0, 2023-06-28 12:25:41.451
14.0, -254.96580952918157, -289.2887413725257, -132.91791437519714, -143.59532874869183, -0.03200000151991844, 0.01600000075995922, 0.9920000471174717, 0.0, 0.0, 0.0, 0.0, 0.0, 1.6879227414511905E9, 0.0, 2023-06-28 12:25:41.451
15.0, -129.38370891707018, -149.3304653307423, 20.111312011722475, -32.02663327055052, -0.03200000151991844, 0.01600000075995922, 0.9920000471174717, 0.0, 0.0, 0.0, 0.0, 0.0, 1.6879227414518688E9, 0.0, 2023-06-28 12:25:41.451
15.0, -161.9844168308191, -208.64901852793992, -167.14547876967117, -163.91794510791078, -0.03200000151991844, 0.01600000075995922, 0.9920000471174717, 0.0, 0.0, 0.0, 0.0, 0.0, 1.6879227414518688E9, 0.0, 2023-06-28 12:25:41.451
16.0, -262.35211194166914, -316.0776447551325, -199.0393455917947, -198.75885309511796, -0.03200000151991844, 0.01600000075995922, 0.9920000471174717, 0.0, 0.0, 0.0, 0.0, 0.0, 1.687922741465475E9, 0.0, 2023-06-28 12:25:41.465
16.0, -197.1506961141713, -218.19324321486056, -15.48131586657837, -57.125101873185486, -0.03200000151991844, 0.01600000075995922, 0.9920000471174717, 0.0, 0.0, 0.0, 0.0, 0.0, 1.687922741465475E9, 0.0, 2023-06-28 12:25:41.465
17.0, -116.24918027268723, -165.50179273914546, -77.66837232979015, -101.09884555218741, -0.03200000151991844, 0.01600000075995922, 0.9920000471174717, 0.0, 0.0, 0.0, 0.0, 0.0, 1.6879227414976327E9, 0.0, 2023-06-28 12:25:41.497
17.0, -248.5818003048189, -290.1002996629104, -232.5002304953523, -219.39188115065917, -0.03200000151991844, 0.01600000075995922, 0.9920000471174717, 0.0, 0.0, 0.0, 0.0, 0.0, 1.6879227414976327E9, 0.0, 2023-06-28 12:25:41.497
18.0, -224.80725628649816, -256.4187606619671, -60.96971902763471, -89.37799909105524, -0.03200000151991844, 0.01600000075995922, 0.9920000471174717, 0.0, 0.0, 0.0, 0.0, 0.0, 1.6879227414985015E9, 0.0, 2023-06-28 12:25:41.498
18.0, -144.05533644324169, -157.86491702962667, -22.426310084294528, -64.9751518801786, -0.03200000151991844, 0.01600000075995922, 0.9920000471174717, 0.0, 0.0, 0.0, 0.0, 0.0, 1.6879227414985015E9, 0.0, 2023-06-28 12:25:41.498
19.0, -198.6279565966688, -249.1895340476185, -215.88385499222204, -205.83848371123895, -0.03200000151991844, 0.01600000075995922, 0.9920000471174717, 0.0, 0.0, 0.0, 0.0, 0.0, 1.6879227414991648E9, 0.0, 2023-06-28 12:25:41.499
19.0, -231.55777570651844, -283.82474753726274, -120.13119642669335, -132.5626238794066, -0.03200000151991844, 0.01600000075995922, 0.9920000471174717, 0.0, 0.0, 0.0, 0.0, 0.0, 1.6879227414991648E9, 0.0, 2023-06-28 12:25:41.499
20.0, -157.6835318817757, -188.06086927186698, 7.6275259596295655, -40.220754073467106, -0.03200000151991844, 0.01600000075995922, 0.9920000471174717, 0.0, 0.0, 0.0, 0.0, 0.0, 1.6879227414999232E9, 0.0, 2023-06-28 12:25:41.499
20.0, -173.49582889443263, -210.67978420387954, -170.79188122646883, -168.86957264924422, -0.03200000151991844, 0.01600000075995922, 0.9920000471174717, 0.0, 0.0, 0.0, 0.0, 0.0, 1.6879227414999232E9, 0.0, 2023-06-28 12:25:41.499
21.0, -249.86458598962054, -296.6638240851462, -189.9626083993353, -185.61684465082362, -0.03200000151991844, 0.01600000075995922, 0.9920000471174717, 0.0, 0.0, 0.0, 0.0, 0.0, 1.6879227415105035E9, 0.0, 2023-06-28 12:25:41.510
21.0, -183.90023057116196, -241.8892493341118, -16.547187353949994, -57.091442773584276, -0.03200000151991844, 0.01600000075995922, 0.9920000471174717, 0.0, 0.0, 0.0, 0.0, 0.0, 1.6879227415105035E9, 0.0, 2023-06-28 12:25:41.510
22.0, -138.8269563051872, -180.33797586336732, -88.33082710346207, -111.12177743343636, -0.03200000151991844, 0.01600000075995922, 0.9920000471174717, 0.0, 0.0, 0.0, 0.0, 0.0, 1.6879227415255213E9, 0.0, 2023-06-28 12:25:41.525
22.0, -226.32191576855257, -246.33225048147142, -218.00063836714253, -209.51106546772644, -0.03200000151991844, 0.01600000075995922, 0.9920000471174717, 0.0, 0.0, 0.0, 0.0, 0.0, 1.6879227415255213E9, 0.0, 2023-06-28 12:25:41.525
23.0, -221.17207352956757, -243.0037395209074, -51.44419384049252, -83.03886866616085, -0.03200000151991844, 0.01600000075995922, 0.9920000471174717, 0.0, 0.0, 0.0, 0.0, 0.0, 1.6879227415412078E9, 0.0, 2023-06-28 12:25:41.541
23.0, -117.17293556174263, -153.98664077557623, -14.815613674465567, -58.16479406086728, -0.03200000151991844, 0.01600000075995922, 0.9920000471174717, 0.0, 0.0, 0.0, 0.0, 0.0, 1.6879227415412078E9, 0.0, 2023-06-28 12:25:41.541
24.0, -191.15189658524469, -238.3026852766052, -216.31768338708207, -205.041885020677, -0.03200000151991844, 0.01600000075995922, 0.9920000471174717, 0.0, 0.0, 0.0, 0.0, 0.0, 1.6879227415421233E9, 0.0, 2023-06-28 12:25:41.542
24.0, -229.8710808265023, -270.39850669633597, -113.58263160428032, -130.06811060896143, -0.03200000151991844, 0.01600000075995922, 0.9920000471174717, 0.0, 0.0, 0.0, 0.0, 0.0, 1.6879227415421233E9, 0.0, 2023-06-28 12:25:41.542
25.0, -121.91886860551313, -184.8707346096635, 16.76410155138001, -36.974520911928266, -0.03200000151991844, 0.01600000075995922, 0.9920000471174717, 0.0, 0.0, 0.0, 0.0, 0.0, 1.687922741555472E9, 0.0, 2023-06-28 12:25:41.555
25.0, -145.21844532946125, -221.00564798153937, -162.73987662186846, -168.10663305828348, -0.03200000151991844, 0.01600000075995922, 0.9920000471174717, 0.0, 0.0, 0.0, 0.0, 0.0, 1.687922741555472E9, 0.0, 2023-06-28 12:25:41.555
26.0, -245.00271604722366, -292.5162750342861, -187.65135022671893, -186.86223133606836, -0.03200000151991844, 0.01600000075995922, 0.9920000471174717, 0.0, 0.0, 0.0, 0.0, 0.0, 1.6879227415712588E9, 0.0, 2023-06-28 12:25:41.571
26.0, -189.63723710319027, -207.00346254743636, -5.716437082272023, -47.102169991936535, -0.03200000151991844, 0.01600000075995922, 0.9920000471174717, 0.0, 0.0, 0.0, 0.0, 0.0, 1.6879227415712588E9, 0.0, 2023-06-28 12:25:41.571
27.0, -135.53584434418008, -172.07653686124831, -84.25059625180438, -106.61893788678572, -0.03200000151991844, 0.01600000075995922, 0.9920000471174717, 0.0, 0.0, 0.0, 0.0, 0.0, 1.6879227415718653E9, 0.0, 2023-06-28 12:25:41.571
27.0, -218.61398195987567, -286.37161940708756, -221.90883382083848, -210.33384345797822, -0.03200000151991844, 0.01600000075995922, 0.9920000471174717, 0.0, 0.0, 0.0, 0.0, 0.0, 1.6879227415718653E9, 0.0, 2023-06-28 12:25:41.571
28.0, -200.15757567854598, -247.9740665620193, -56.65387447876856, -87.91569820838049, -0.03200000151991844, 0.01600000075995922, 0.9920000471174717, 0.0, 0.0, 0.0, 0.0, 0.0, 1.687922741585498E9, 0.0, 2023-06-28 12:25:41.585
28.0, -127.5586377386935, -149.75307402573526, -12.549234301317483, -54.85498260008171, -0.03200000151991844, 0.01600000075995922, 0.9920000471174717, 0.0, 0.0, 0.0, 0.0, 0.0, 1.687922741585498E9, 0.0, 2023-06-28 12:25:41.585
29.0, -214.62350870715454, -235.4080027109012, -218.13527476554736, -205.0456249206327, -0.03200000151991844, 0.01600000075995922, 0.9920000471174717, 0.0, 0.0, 0.0, 0.0, 0.0, 1.6879227416011884E9, 0.0, 2023-06-28 12:25:41.601
29.0, -224.05927629536018, -298.0326274689287, -125.04916486842558, -145.03893013158813, -0.03200000151991844, 0.01600000075995922, 0.9920000471174717, 0.0, 0.0, 0.0, 0.0, 0.0, 1.6879227416011884E9, 0.0, 2023-06-28 12:25:41.601
30.0, -141.77399747027084, -186.2694571930915, 10.088380130473524, -40.194574773777276, -0.03200000151991844, 0.01600000075995922, 1.008000047877431, 0.0, 0.0, 0.0, 0.0, 0.0, 1.6879227416019592E9, 0.0, 2023-06-28 12:25:41.601
30.0, -159.2393302633427, -198.1698188520968, -164.8417003969662, -165.54854148859158, -0.03200000151991844, 0.01600000075995922, 1.008000047877431, 0.0, 0.0, 0.0, 0.0, 0.0, 1.6879227416019592E9, 0.0, 2023-06-28 12:25:41.601
31.0, -240.40263910172507, -294.5545205101371, -184.90626365924254, -180.0668331165798, -0.03200000151991844, 0.01600000075995922, 1.008000047877431, 0.0, 0.0, 0.0, 0.0, 0.0, 1.687922741632021E9, 0.0, 2023-06-28 12:25:41.632
31.0, -162.03303553024307, -198.8392609441653, 0.37585994554683566, -42.84616384236142, -0.03200000151991844, 0.01600000075995922, 1.008000047877431, 0.0, 0.0, 0.0, 0.0, 0.0, 1.687922741632021E9, 0.0, 2023-06-28 12:25:41.632
32.0, -114.40914949448779, -155.3704037591815, -76.23599064676091, -100.81087325559929, -0.03200000151991844, 0.01600000075995922, 1.008000047877431, 0.0, 0.0, 0.0, 0.0, 0.0, 1.6879227416327455E9, 0.0, 2023-06-28 12:25:41.632
32.0, -241.10574029339477, -278.92921849526465, -226.76322396332398, -215.39766799798235, -0.03200000151991844, 0.01600000075995922, 1.008000047877431, 0.0, 0.0, 0.0, 0.0, 0.0, 1.6879227416327455E9, 0.0, 2023-06-28 12:25:41.632
33.0, -223.28511700453237, -253.827009992674, -58.333089558873326, -85.82883403310552, -0.03200000151991844, 0.01600000075995922, 1.008000047877431, 0.0, 0.0, 0.0, 0.0, 0.0, 1.687922741633428E9, 0.0, 2023-06-28 12:25:41.633
33.0, -122.94360119337216, -167.48019981570542, -17.639238141011447, -61.43720652209595, -0.03200000151991844, 0.01600000075995922, 1.008000047877431, 0.0, 0.0, 0.0, 0.0, 0.0, 1.687922741633428E9, 0.0, 2023-06-28 12:25:41.633
34.0, -196.15962262591347, -246.54916467890143, -217.9744590674527, -206.28353180596605, -0.03200000151991844, 0.01600000075995922, 1.008000047877431, 0.0, 0.0, 0.0, 0.0, 0.0, 1.6879227416458187E9, 0.0, 2023-06-28 12:25:41.645
34.0, -236.99559024209157, -276.7226775214076, -121.46634071087465, -136.02203133841977, -0.03200000151991844, 0.01600000075995922, 1.008000047877431, 0.0, 0.0, 0.0, 0.0, 0.0, 1.6879227416458187E9, 0.0, 2023-06-28 12:25:41.645
35.0, -134.68688705423847, -170.02333178557456, 15.51871486613527, -37.59534430457279, -0.03200000151991844, 0.01600000075995922, 1.008000047877431, 0.0, 0.0, 0.0, 0.0, 0.0, 1.6879227416611469E9, 0.0, 2023-06-28 12:25:41.661
35.0, -158.7606230690144, -185.0502498075366, -158.2819158746861, -162.021815830376, -0.03200000151991844, 0.01600000075995922, 1.008000047877431, 0.0, 0.0, 0.0, 0.0, 0.0, 1.6879227416611469E9, 0.0, 2023-06-28 12:25:41.661
36.0, -253.44367024721578, -298.85914535913616, -187.53167342813686, -187.5503729279153, -0.03200000151991844, 0.01600000075995922, 1.008000047877431, 0.0, 0.0, 0.0, 0.0, 0.0, 1.6879227416619446E9, 0.0, 2023-06-28 12:25:41.661
36.0, -181.63759109796956, -207.42607124242932, -8.62607924779877, -55.932073787320405, -0.03200000151991844, 0.01600000075995922, 1.008000047877431, 0.0, 0.0, 0.0, 0.0, 0.0, 1.6879227416619446E9, 0.0, 2023-06-28 12:25:41.661
37.0, -120.56128492159769, -167.61483621411026, -79.32140811020508, -105.5867254990153, -0.03200000151991844, 0.01600000075995922, 1.008000047877431, 0.0, 0.0, 0.0, 0.0, 0.0, 1.6879227416755908E9, 0.0, 2023-06-28 12:25:41.675
37.0, -234.72921086894348, -294.4759826110676, -224.3809076915495, -215.73425899399444, -0.03200000151991844, 0.01600000075995922, 1.008000047877431, 0.0, 0.0, 0.0, 0.0, 0.0, 1.6879227416755908E9, 0.0, 2023-06-28 12:25:41.675
38.0, -209.06227747304365, -241.88176953420043, -53.0448710215278, -89.14612529380247, -0.03200000151991844, 0.01600000075995922, 1.008000047877431, 0.0, 0.0, 0.0, 0.0, 0.0, 1.6879227416911712E9, 0.0, 2023-06-28 12:25:41.691
38.0, -120.13119642669335, -155.50878005754203, -8.136152353603393, -55.73759898962453, -0.03200000151991844, 0.01600000075995922, 1.008000047877431, 0.0, 0.0, 0.0, 0.0, 0.0, 1.6879227416911712E9, 0.0, 2023-06-28 12:25:41.691
39.0, -213.18738712416962, -252.14779491256922, -217.05818357830867, -207.20728709502146, -0.03200000151991844, 0.01600000075995922, 1.008000047877431, 0.0, 0.0, 0.0, 0.0, 0.0, 1.6879227416919029E9, 0.0, 2023-06-28 12:25:41.691
39.0, -248.03577491128817, -266.164939946495, -123.38116948818788, -140.88390128081664, -0.03200000151991844, 0.01600000075995922, 1.008000047877431, 0.0, 0.0, 0.0, 0.0, 0.0, 1.6879227416919029E9, 0.0, 2023-06-28 12:25:41.691
40.0, -146.14594051847234, -151.41732950601727, 15.346679468173534, -36.75386681454256, -0.03200000151991844, 0.01600000075995922, 0.9920000471174717, 0.0, 0.0, 0.0, 0.0, 0.0, 1.687922741705586E9, 0.0, 2023-06-28 12:25:41.705
40.0, -168.8059943499975, -220.09311239235103, -165.8701728847809, -163.6561521110125, -0.03200000151991844, 0.01600000075995922, 0.9920000471174717, 0.0, 0.0, 0.0, 0.0, 0.0, 1.687922741705586E9, 0.0, 2023-06-28 12:25:41.705
41.0, -236.77119624475017, -301.3947975290939, -188.27591351931915, -188.63868381502107, -0.03200000151991844, 0.01600000075995922, 0.9920000471174717, 0.0, 0.0, 0.0, 0.0, 0.0, 1.6879227417211952E9, 0.0, 2023-06-28 12:25:41.721
41.0, -176.03522096434608, -209.9879027120769, -2.0363755258731544, -41.69801455596462, -0.03200000151991844, 0.01600000075995922, 0.9920000471174717, 0.0, 0.0, 0.0, 0.0, 0.0, 1.6879227417211952E9, 0.0, 2023-06-28 12:25:41.721
42.0, -112.56163891637698, -153.64256997965276, -79.78515570471063, -106.32348579028621, -0.03200000151991844, 0.01600000075995922, 0.9920000471174717, 0.0, 0.0, 0.0, 0.0, 0.0, 1.6879227417218924E9, 0.0, 2023-06-28 12:25:41.721
42.0, -226.51265066629276, -278.9815770946443, -219.56017664866522, -211.6016695429571, -0.03200000151991844, 0.01600000075995922, 0.9920000471174717, 0.0, 0.0, 0.0, 0.0, 0.0, 1.6879227417218924E9, 0.0, 2023-06-28 12:25:41.721
43.0, -219.70229284698144, -253.05659060180187, -58.396667858120054, -89.9876027838327, -0.03200000151991844, 0.01600000075995922, 0.9920000471174717, 0.0, 0.0, 0.0, 0.0, 0.0, 1.6879227417519524E9, 0.0, 2023-06-28 12:25:41.751
43.0, -142.24148496473208, -149.34168503060937, -18.813566727098078, -61.216552424710244, -0.03200000151991844, 0.01600000075995922, 0.9920000471174717, 0.0, 0.0, 0.0, 0.0, 0.0, 1.6879227417519524E9, 0.0, 2023-06-28 12:25:41.751
44.0, -207.30826439382508, -248.71830665320158, -215.31539019895718, -204.86236982280388, -0.03200000151991844, 0.01600000075995922, 0.9920000471174717, 0.0, 0.0, 0.0, 0.0, 0.0, 1.6879227417526186E9, 0.0, 2023-06-28 12:25:41.752
44.0, -231.35956100886688, -280.8777063721791, -123.75889938371256, -141.1195149780251, -0.03200000151991844, 0.01600000075995922, 0.9920000471174717, 0.0, 0.0, 0.0, 0.0, 0.0, 1.6879227417526186E9, 0.0, 2023-06-28 12:25:41.752
45.0, -142.0170909673907, -184.73983811121434, 10.477329725865275, -39.22968058520928, -0.03200000151991844, 0.01600000075995922, 0.9920000471174717, 0.0, 0.0, 0.0, 0.0, 0.0, 1.6879227417533877E9, 0.0, 2023-06-28 12:25:41.753
45.0, -143.77858384652063, -204.07886078208685, -161.81612133281305, -166.82384737348184, -0.03200000151991844, 0.01600000075995922, 0.9920000471174717, 0.0, 0.0, 0.0, 0.0, 0.0, 1.6879227417533877E9, 0.0, 2023-06-28 12:25:41.753
46.0, -230.37222742056474, -274.66947244573385, -180.27626751409844, -180.04439371684566, -0.03200000151991844, 0.01600000075995922, 0.9920000471174717, 0.0, 0.0, 0.0, 0.0, 0.0, 1.6879227417654717E9, 0.0, 2023-06-28 12:25:41.765
46.0, -170.6946438276209, -199.26934943906963, -3.2032243120484054, -44.630096121225506, -0.03200000151991844, 0.01600000075995922, 0.9920000471174717, 0.0, 0.0, 0.0, 0.0, 0.0, 1.6879227417654717E9, 0.0, 2023-06-28 12:25:41.765
47.0, -125.1875411667861, -164.66405514907092, -79.27278941078112, -101.40551734855399, -0.03200000151991844, 0.01600000075995922, 0.9920000471174717, 0.0, 0.0, 0.0, 0.0, 0.0, 1.687922741781231E9, 0.0, 2023-06-28 12:25:41.781
47.0, -229.84490152681246, -288.90353167708963, -222.37258141534403, -213.55389731982723, -0.03200000151991844, 0.01600000075995922, 0.9920000471174717, 0.0, 0.0, 0.0, 0.0, 0.0, 1.687922741781231E9, 0.0, 2023-06-28 12:25:41.781
48.0, -216.0484105902724, -252.47316620871425, -53.45626001665369, -86.04200833057985, -0.03200000151991844, 0.01600000075995922, 0.9920000471174717, 0.0, 0.0, 0.0, 0.0, 0.0, 1.687922741781946E9, 0.0, 2023-06-28 12:25:41.781
48.0, -138.87557500461116, -159.90690240543336, -18.185263534542173, -60.48353203339502, -0.03200000151991844, 0.01600000075995922, 0.9920000471174717, 0.0, 0.0, 0.0, 0.0, 0.0, 1.687922741781946E9, 0.0, 2023-06-28 12:25:41.781
49.0, -212.29729093471542, -250.85378952790052, -220.55499003687873, -207.73461298877373, -0.03200000151991844, 0.01600000075995922, 0.9920000471174717, 0.0, 0.0, 0.0, 0.0, 0.0, 1.6879227417955308E9, 0.0, 2023-06-28 12:25:41.795
49.0, -228.80520933913067, -272.67236586939543, -117.50578665779904, -136.6727739307098, -0.03200000151991844, 0.01600000075995922, 0.9920000471174717, 0.0, 0.0, 0.0, 0.0, 0.0, 1.6879227417955308E9, 0.0, 2023-06-28 12:25:41.795
50.0, -130.9320274987258, -154.8842167649418, 18.566733330022544, -33.013966858852655, -0.03200000151991844, 0.01600000075995922, 1.008000047877431, 0.0, 0.0, 0.0, 0.0, 0.0, 1.6879227418112392E9, 0.0, 2023-06-28 12:25:41.811
50.0, -158.0163829778321, -200.26042292732745, -161.74132333369926, -160.00600975425914, -0.03200000151991844, 0.01600000075995922, 1.008000047877431, 0.0, 0.0, 0.0, 0.0, 0.0, 1.6879227418112392E9, 0.0, 2023-06-28 12:25:41.811
51.0, -249.20262369746342, -300.61315843835473, -185.3288723542355, -183.49258147599176, -0.03200000151991844, 0.01600000075995922, 1.008000047877431, 0.0, 0.0, 0.0, 0.0, 0.0, 1.6879227418119404E9, 0.0, 2023-06-28 12:25:41.811
51.0, -163.4616773133166, -203.3607999905944, -0.5366756436415017, -48.17926117917523, -0.03200000151991844, 0.01600000075995922, 1.008000047877431, 0.0, 0.0, 0.0, 0.0, 0.0, 1.6879227418119404E9, 0.0, 2023-06-28 12:25:41.811
52.0, -107.86058467207476, -142.03766041714698, -75.88444005092606, -95.14866472268477, -0.03200000151991844, 0.01600000075995922, 1.008000047877431, 0.0, 0.0, 0.0, 0.0, 0.0, 1.6879227418255692E9, 0.0, 2023-06-28 12:25:41.825
52.0, -235.08076146477833, -263.5731892772019, -219.75839134631678, -206.46304700383916, -0.03200000151991844, 0.01600000075995922, 1.008000047877431, 0.0, 0.0, 0.0, 0.0, 0.0, 1.6879227418255692E9, 0.0, 2023-06-28 12:25:41.825
53.0, -211.32865684619173, -251.73640591744334, -55.64410149073228, -88.52156200120226, -0.03200000151991844, 0.01600000075995922, 1.008000047877431, 0.0, 0.0, 0.0, 0.0, 0.0, 1.6879227418415003E9, 0.0, 2023-06-28 12:25:41.841
53.0, -107.65115027455613, -149.68201592657715, -10.395051926840097, -52.25575213087723, -0.03200000151991844, 0.01600000075995922, 1.008000047877431, 0.0, 0.0, 0.0, 0.0, 0.0, 1.6879227418415003E9, 0.0, 2023-06-28 12:25:41.841
54.0, -190.1795225967653, -247.2260865708813, -210.74149255314842, -202.4501343513839, -0.03200000151991844, 0.01600000075995922, 1.008000047877431, 0.0, 0.0, 0.0, 0.0, 0.0, 1.6879227418419335E9, 0.0, 2023-06-28 12:25:41.841
54.0, -242.11177338147536, -284.3109345315024, -124.43208137573674, -138.8606154047884, -0.03200000151991844, 0.01600000075995922, 1.008000047877431, 0.0, 0.0, 0.0, 0.0, 0.0, 1.6879227418419335E9, 0.0, 2023-06-28 12:25:41.841
55.0, -136.91960732778534, -161.4514810871333, 11.932150808628649, -37.12411691015586, -0.03200000151991844, 0.01600000075995922, 1.008000047877431, 0.0, 0.0, 0.0, 0.0, 0.0, 1.6879227418554497E9, 0.0, 2023-06-28 12:25:41.855
55.0, -167.97573655983433, -204.56504777632654, -165.17829139297828, -167.55686776479706, -0.03200000151991844, 0.01600000075995922, 1.008000047877431, 0.0, 0.0, 0.0, 0.0, 0.0, 1.6879227418554497E9, 0.0, 2023-06-28 12:25:41.855
56.0, -244.67360485112295, -305.12347778491676, -180.05561341671273, -182.67728328565136, -0.03200000151991844, 0.01600000075995922, 1.008000047877431, 0.0, 0.0, 0.0, 0.0, 0.0, 1.6879227418712223E9, 0.0, 2023-06-28 12:25:41.871
56.0, -161.10928024118766, -208.16657143365592, -5.01707579055801, -51.35443624155596, -0.03200000151991844, 0.01600000075995922, 1.008000047877431, 0.0, 0.0, 0.0, 0.0, 0.0, 1.6879227418712223E9, 0.0, 2023-06-28 12:25:41.871
57.0, -119.17004213808104, -149.10233143344522, -80.10304720094427, -103.60831842245534, -0.03200000151991844, 0.01600000075995922, 1.008000047877431, 0.0, 0.0, 0.0, 0.0, 0.0, 1.687922741871883E9, 0.0, 2023-06-28 12:25:41.871
57.0, -228.88000733824447, -272.88180026691407, -220.20717934099957, -211.87842213967815, -0.03200000151991844, 0.01600000075995922, 1.008000047877431, 0.0, 0.0, 0.0, 0.0, 0.0, 1.687922741871883E9, 0.0, 2023-06-28 12:25:41.871
58.0, -194.0017003514804, -263.7078256756067, -55.60296259121969, -86.10558662982658, -0.03200000151991844, 0.01600000075995922, 1.008000047877431, 0.0, 0.0, 0.0, 0.0, 0.0, 1.6879227418854833E9, 0.0, 2023-06-28 12:25:41.885
58.0, -124.32362427702174, -163.55330486223102, -21.57735279435292, -60.86874172883108, -0.03200000151991844, 0.01600000075995922, 1.008000047877431, 0.0, 0.0, 0.0, 0.0, 0.0, 1.6879227418854833E9, 0.0, 2023-06-28 12:25:41.885
59.0, -208.92016127472743, -251.59054981917143, -222.73909161100164, -213.87552871601656, -0.03200000151991844, 0.01600000075995922, 1.008000047877431, 0.0, 0.0, 0.0, 0.0, 0.0, 1.6879227419013789E9, 0.0, 2023-06-28 12:25:41.901
59.0, -242.73633667407557, -291.55886064562947, -128.06726413266733, -139.83672929322347, -0.03200000151991844, 0.01600000075995922, 1.008000047877431, 0.0, 0.0, 0.0, 0.0, 0.0, 1.6879227419013789E9, 0.0, 2023-06-28 12:25:41.901
60.0, -145.4577989266254, -179.11502857785672, 6.688811070751399, -40.13847627444193, -0.03200000151991844, 0.01600000075995922, 1.008000047877431, 0.0, 0.0, 0.0, 0.0, 0.0, 1.6879227419019632E9, 0.0, 2023-06-28 12:25:41.901
60.0, -175.807087067049, -188.55079616606236, -166.10578658198938, -166.10578658198938, -0.03200000151991844, 0.01600000075995922, 1.008000047877431, 0.0, 0.0, 0.0, 0.0, 0.0, 1.6879227419019632E9, 0.0, 2023-06-28 12:25:41.901
61.0, -265.98355479864404, -285.48526311758906, -186.7762136370875, -189.483901205007, -0.03200000151991844, 0.01600000075995922, 1.008000047877431, 0.0, 0.0, 0.0, 0.0, 0.0, 1.6879227419155047E9, 0.0, 2023-06-28 12:25:41.915
61.0, -166.5059558772482, -219.64058449771255, -4.710403994191438, -54.59318960318342, -0.03200000151991844, 0.01600000075995922, 1.008000047877431, 0.0, 0.0, 0.0, 0.0, 0.0, 1.6879227419155047E9, 0.0, 2023-06-28 12:25:41.915
62.0, -121.03251231601462, -165.2624391419813, -85.29776823939756, -108.47392826480791, -0.03200000151991844, 0.01600000075995922, 1.008000047877431, 0.0, 0.0, 0.0, 0.0, 0.0, 1.6879227419312215E9, 0.0, 2023-06-28 12:25:41.931
62.0, -229.29139633337036, -278.18871830403805, -222.8288492099382, -212.37208893382922, -0.03200000151991844, 0.01600000075995922, 1.008000047877431, 0.0, 0.0, 0.0, 0.0, 0.0, 1.6879227419312215E9, 0.0, 2023-06-28 12:25:41.931
63.0, -193.1078642620705, -261.4302266025916, -53.968626310583204, -84.16083865286782, -0.03200000151991844, 0.01600000075995922, 1.008000047877431, 0.0, 0.0, 0.0, 0.0, 0.0, 1.6879227419319024E9, 0.0, 2023-06-28 12:25:41.931
63.0, -111.13673703325912, -165.80098473560065, -20.33196610910818, -59.03619075054303, -0.03200000151991844, 0.01600000075995922, 1.008000047877431, 0.0, 0.0, 0.0, 0.0, 0.0, 1.6879227419319024E9, 0.0, 2023-06-28 12:25:41.931
64.0, -204.25650602998212, -237.31161178834736, -218.09787576599047, -204.47342022741213, -0.03200000151991844, 0.01600000075995922, 1.008000047877431, 0.0, 0.0, 0.0, 0.0, 0.0, 1.6879227419455051E9, 0.0, 2023-06-28 12:25:41.945
64.0, -249.41579799493775, -279.37052669003606, -127.18090784316882, -141.77025757031515, -0.03200000151991844, 0.01600000075995922, 1.008000047877431, 0.0, 0.0, 0.0, 0.0, 0.0, 1.6879227419455051E9, 0.0, 2023-06-28 12:25:41.945
65.0, -162.04051533015445, -171.14530177228153, 5.04325509024784, -43.93821462942287, -0.03200000151991844, 0.01600000075995922, 1.008000047877431, 0.0, 0.0, 0.0, 0.0, 0.0, 1.6879227419613004E9, 0.0, 2023-06-28 12:25:41.961
65.0, -159.11217366484925, -211.22954949736595, -168.8396534495987, -172.27288160892203, -0.03200000151991844, 0.01600000075995922, 1.008000047877431, 0.0, 0.0, 0.0, 0.0, 0.0, 1.6879227419613004E9, 0.0, 2023-06-28 12:25:41.961
66.0, -248.05447441106662, -292.0338279400021, -187.32223903061822, -186.31994584249333, -0.03200000151991844, 0.01600000075995922, 1.008000047877431, 0.0, 0.0, 0.0, 0.0, 0.0, 1.6879227419618874E9, 0.0, 2023-06-28 12:25:41.961
66.0, -184.5472332634963, -226.73143481370062, -12.231342805083841, -52.0799768329598, -0.03200000151991844, 0.01600000075995922, 1.008000047877431, 0.0, 0.0, 0.0, 0.0, 0.0, 1.6879227419618874E9, 0.0, 2023-06-28 12:25:41.961
67.0, -123.49710638681427, -188.08330867160112, -83.41285866172984, -109.79785284912214, -0.03200000151991844, 0.01600000075995922, 1.008000047877431, 0.0, 0.0, 0.0, 0.0, 0.0, 1.687922741991892E9, 0.0, 2023-06-28 12:25:41.991
67.0, -215.21067300019786, -289.1728044738993, -220.88784113293514, -213.7521120174788, -0.03200000151991844, 0.01600000075995922, 1.008000047877431, 0.0, 0.0, 0.0, 0.0, 0.0, 1.687922741991892E9, 0.0, 2023-06-28 12:25:41.991
68.0, -192.07939177425578, -232.71901464276016, -49.136675567831844, -81.98795677861199, -0.03200000151991844, 0.01600000075995922, 1.008000047877431, 0.0, 0.0, 0.0, 0.0, 0.0, 1.687922741992644E9, 0.0, 2023-06-28 12:25:41.992
68.0, -126.12625605566427, -157.83499782998115, -20.74709500418976, -60.59946893202141, -0.03200000151991844, 0.01600000075995922, 1.008000047877431, 0.0, 0.0, 0.0, 0.0, 0.0, 1.687922741992644E9, 0.0, 2023-06-28 12:25:41.992
69.0, -220.67092693550512, -252.0131585141644, -226.76696386327967, -211.25759874703363, -0.03200000151991844, 0.01600000075995922, 1.008000047877431, 0.0, 0.0, 0.0, 0.0, 0.0, 1.6879227419933956E9, 0.0, 2023-06-28 12:25:41.993
69.0, -223.03828360745683, -271.5354362828657, -118.41084244707599, -139.50387819716707, -0.03200000151991844, 0.01600000075995922, 1.008000047877431, 0.0, 0.0, 0.0, 0.0, 0.0, 1.6879227419933956E9, 0.0, 2023-06-28 12:25:41.993
70.0, -129.01345882145688, -165.96180043369532, 20.208549410570413, -33.058845658320934, -0.03200000151991844, 0.01600000075995922, 1.008000047877431, 0.0, 0.0, 0.0, 0.0, 0.0, 1.6879227420055425E9, 0.0, 2023-06-28 12:25:42.005
70.0, -153.6070409300737, -212.40387808345258, -165.89261228451505, -168.56664075283334, -0.03200000151991844, 0.01600000075995922, 1.008000047877431, 0.0, 0.0, 0.0, 0.0, 0.0, 1.6879227420055425E9, 0.0, 2023-06-28 12:25:42.005
71.0, -249.2138433973305, -310.2172215245664, -189.32308550691232, -189.2595072076656, -0.03200000151991844, 0.01600000075995922, 1.008000047877431, 0.0, 0.0, 0.0, 0.0, 0.0, 1.6879227420212417E9, 0.0, 2023-06-28 12:25:42.021
71.0, -176.82807975495234, -224.61465143878013, -12.332320103887469, -50.05669095693156, -0.03200000151991844, 0.01600000075995922, 1.008000047877431, 0.0, 0.0, 0.0, 0.0, 0.0, 1.6879227420212417E9, 0.0, 2023-06-28 12:25:42.021
72.0, -123.54198518628255, -162.77166577149183, -82.17495177639648, -107.95408217096701, -0.03200000151991844, 0.01600000075995922, 1.008000047877431, 0.0, 0.0, 0.0, 0.0, 0.0, 1.6879227420219574E9, 0.0, 2023-06-28 12:25:42.021
72.0, -253.59326624544337, -286.7942281020805, -229.4222928318195, -219.4965983494185, -0.03200000151991844, 0.01600000075995922, 1.008000047877431, 0.0, 0.0, 0.0, 0.0, 0.0, 1.6879227420219574E9, 0.0, 2023-06-28 12:25:42.021
73.0, -214.39537480985746, -244.21172720659524, -58.57992295594886, -90.66078477585688, -0.03200000151991844, 0.01600000075995922, 1.008000047877431, 0.0, 0.0, 0.0, 0.0, 0.0, 1.687922742035525E9, 0.0, 2023-06-28 12:25:42.035
73.0, -106.97422838257626, -142.9614157062024, -12.552974201273173, -53.123408920597285, -0.03200000151991844, 0.01600000075995922, 1.008000047877431, 0.0, 0.0, 0.0, 0.0, 0.0, 1.687922742035525E9, 0.0, 2023-06-28 12:25:42.035
74.0, -182.01532099349424, -242.562431326136, -211.94200043892488, -199.77236598310992, -0.03200000151991844, 0.01600000075995922, 1.008000047877431, 0.0, 0.0, 0.0, 0.0, 0.0, 1.6879227420511973E9, 0.0, 2023-06-28 12:25:42.051
74.0, -223.89098079735413, -284.74102302640676, -115.09355118637905, -134.60834915516898, -0.03200000151991844, 0.01600000075995922, 1.008000047877431, 0.0, 0.0, 0.0, 0.0, 0.0, 1.6879227420511973E9, 0.0, 2023-06-28 12:25:42.051
75.0, -135.1244553490542, -189.84854145068675, 12.983062696177512, -34.218214644584805, -0.03200000151991844, 0.01600000075995922, 1.008000047877431, 0.0, 0.0, 0.0, 0.0, 0.0, 1.687922742051856E9, 0.0, 2023-06-28 12:25:42.051
75.0, -155.66398590570316, -214.44960335921496, -170.63106552837417, -170.62732562841848, -0.03200000151991844, 0.01600000075995922, 1.008000047877431, 0.0, 0.0, 0.0, 0.0, 0.0, 1.687922742051856E9, 0.0, 2023-06-28 12:25:42.051
76.0, -260.8037933600135, -290.15265826229006, -182.13499779207632, -186.589218639303, -0.03200000151991844, 0.01600000075995922, 1.008000047877431, 0.0, 0.0, 0.0, 0.0, 0.0, 1.6879227420655177E9, 0.0, 2023-06-28 12:25:42.065
76.0, -182.68476308556274, -197.8332278560847, -0.4057791451923549, -50.43816075241193, -0.03200000151991844, 0.01600000075995922, 1.008000047877431, 0.0, 0.0, 0.0, 0.0, 0.0, 1.6879227420655177E9, 0.0, 2023-06-28 12:25:42.065
77.0, -112.65139651531354, -144.0684260930866, -75.39451315673068, -99.90581746632233, -0.03200000151991844, 0.01600000075995922, 1.008000047877431, 0.0, 0.0, 0.0, 0.0, 0.0, 1.6879227420812733E9, 0.0, 2023-06-28 12:25:42.081
77.0, -223.99195809615776, -266.4529122430831, -216.4934586849995, -206.34711010521278, -0.03200000151991844, 0.01600000075995922, 1.008000047877431, 0.0, 0.0, 0.0, 0.0, 0.0, 1.6879227420812733E9, 0.0, 2023-06-28 12:25:42.081
78.0, -205.62530941376463, -260.315736415796, -50.98418614594266, -83.82424765685573, -0.03200000151991844, 0.01600000075995922, 1.008000047877431, 0.0, 0.0, 0.0, 0.0, 0.0, 1.6879227420818791E9, 0.0, 2023-06-28 12:25:42.081
78.0, -104.143124116119, -172.0466176616028, -18.26006153365597, -57.24477867176756, -0.03200000151991844, 0.01600000075995922, 1.008000047877431, 0.0, 0.0, 0.0, 0.0, 0.0, 1.6879227420818791E9, 0.0, 2023-06-28 12:25:42.081
79.0, -203.35893004061654, -269.3550746086985, -220.37547483900562, -210.10944946063682, -0.03200000151991844, 0.01600000075995922, 1.008000047877431, 0.0, 0.0, 0.0, 0.0, 0.0, 1.6879227420956075E9, 0.0, 2023-06-28 12:25:42.095
79.0, -239.8753132079728, -280.00630968250334, -120.69218142004684, -138.1201152135618, -0.03200000151991844, 0.01600000075995922, 1.008000047877431, 0.0, 0.0, 0.0, 0.0, 0.0, 1.6879227420956075E9, 0.0, 2023-06-28 12:25:42.095
80.0, -144.09647534275427, -148.79565963707864, 12.65021160012111, -39.67846857989207, -0.03200000151991844, 0.01600000075995922, 1.008000047877431, 0.0, 0.0, 0.0, 0.0, 0.0, 1.6879227421111617E9, 0.0, 2023-06-28 12:25:42.111
80.0, -170.5824468289502, -214.23642906174064, -171.49498241813853, -168.29736795602366, -0.03200000151991844, 0.01600000075995922, 1.008000047877431, 0.0, 0.0, 0.0, 0.0, 0.0, 1.6879227421111617E9, 0.0, 2023-06-28 12:25:42.111
81.0, -230.81353561533615, -293.3203535247594, -183.07745258091018, -183.04005358135328, -0.03200000151991844, 0.01600000075995922, 1.008000047877431, 0.0, 0.0, 0.0, 0.0, 0.0, 1.6879227421118684E9, 0.0, 2023-06-28 12:25:42.111
81.0, -139.99754499131814, -203.91804508399218, 0.7573297410272062, -43.38470943598077, -0.03200000151991844, 0.01600000075995922, 1.008000047877431, 0.0, 0.0, 0.0, 0.0, 0.0, 1.6879227421118684E9, 0.0, 2023-06-28 12:25:42.111
82.0, -110.72534803813323, -155.82667155377567, -78.15455932402983, -100.35834536096081, -0.03200000151991844, 0.01600000075995922, 1.008000047877431, 0.0, 0.0, 0.0, 0.0, 0.0, 1.68792274212559E9, 0.0, 2023-06-28 12:25:42.125
82.0, -223.72642519930378, -289.23638277314603, -217.7874640696682, -206.46304700383916, -0.03200000151991844, 0.01600000075995922, 1.008000047877431, 0.0, 0.0, 0.0, 0.0, 0.0, 1.68792274212559E9, 0.0, 2023-06-28 12:25:42.125
83.0, -216.14190808916464, -251.69152711797506, -61.2689110240899, -86.55063472455367, -0.03200000151991844, 0.01600000075995922, 1.008000047877431, 0.0, 0.0, 0.0, 0.0, 0.0, 1.6879227421411839E9, 0.0, 2023-06-28 12:25:42.141
83.0, -116.34641767153516, -152.34482469502836, -16.32653325656429, -58.16105416091159, -0.03200000151991844, 0.01600000075995922, 1.008000047877431, 0.0, 0.0, 0.0, 0.0, 0.0, 1.6879227421411839E9, 0.0, 2023-06-28 12:25:42.141
84.0, -221.77419742243364, -257.1667406531051, -222.4959981138818, -207.69721398921683, -0.03200000151991844, 0.01600000075995922, 1.008000047877431, 0.0, 0.0, 0.0, 0.0, 0.0, 1.687922742142031E9, 0.0, 2023-06-28 12:25:42.142
84.0, -227.93007274949923, -275.9410384306684, -116.06592517485842, -133.94638686301187, -0.03200000151991844, 0.01600000075995922, 1.008000047877431, 0.0, 0.0, 0.0, 0.0, 0.0, 1.687922742142031E9, 0.0, 2023-06-28 12:25:42.142
85.0, -121.17462851433083, -177.43207359779626, 13.166317794006318, -35.29904573177919, -0.03200000151991844, 0.01600000075995922, 1.008000047877431, 0.0, 0.0, 0.0, 0.0, 0.0, 1.6879227421555707E9, 0.0, 2023-06-28 12:25:42.155
85.0, -146.84904171014205, -213.78764106705785, -162.0629547298886, -163.22980351606384, -0.03200000151991844, 0.01600000075995922, 1.008000047877431, 0.0, 0.0, 0.0, 0.0, 0.0, 1.6879227421555707E9, 0.0, 2023-06-28 12:25:42.155
86.0, -246.5809538285248, -309.31590563524514, -188.9939743108116, -188.72470151400194, -0.03200000151991844, 0.01600000075995922, 1.008000047877431, 0.0, 0.0, 0.0, 0.0, 0.0, 1.6879227421711419E9, 0.0, 2023-06-28 12:25:42.171
86.0, -178.26420133793727, -207.1006999462843, -3.7230704058893025, -48.57943047443405, -0.03200000151991844, 0.01600000075995922, 1.008000047877431, 0.0, 0.0, 0.0, 0.0, 0.0, 1.6879227421711419E9, 0.0, 2023-06-28 12:25:42.171
87.0, -141.81139646982774, -184.48178501427174, -95.16362432250753, -114.95517488801852, -0.03200000151991844, 0.01600000075995922, 1.008000047877431, 0.0, 0.0, 0.0, 0.0, 0.0, 1.6879227421719632E9, 0.0, 2023-06-28 12:25:42.171
87.0, -254.5469407341443, -288.2415693849325, -229.5307499305345, -217.48453217325732, -0.03200000151991844, 0.01600000075995922, 1.008000047877431, 0.0, 0.0, 0.0, 0.0, 0.0, 1.6879227421719632E9, 0.0, 2023-06-28 12:25:42.171
88.0, -204.38740252843127, -237.3340511880815, -60.47605223348364, -94.3595458320342, -0.03200000151991844, 0.01600000075995922, 1.008000047877431, 0.0, 0.0, 0.0, 0.0, 0.0, 1.687922742185656E9, 0.0, 2023-06-28 12:25:42.185
88.0, -96.69698330434039, -142.1386377159506, -11.573120412882417, -50.00059245759621, -0.03200000151991844, 0.01600000075995922, 1.008000047877431, 0.0, 0.0, 0.0, 0.0, 0.0, 1.687922742185656E9, 0.0, 2023-06-28 12:25:42.185
89.0, -186.68271613819525, -263.053343183361, -218.0829161661677, -206.05913780862466, -0.03200000151991844, 0.01600000075995922, 1.008000047877431, 0.0, 0.0, 0.0, 0.0, 0.0, 1.6879227422015789E9, 0.0, 2023-06-28 12:25:42.201
89.0, -216.91606737999246, -284.41939163021743, -116.83260466577485, -132.06521718529984, -0.03200000151991844, 0.01600000075995922, 1.008000047877431, 0.0, 0.0, 0.0, 0.0, 0.0, 1.6879227422015789E9, 0.0, 2023-06-28 12:25:42.201
90.0, -149.10420138342306, -159.99292010441422, 11.84613310964778, -35.456121529918164, -0.03200000151991844, 0.01600000075995922, 0.9920000471174717, 0.0, 0.0, 0.0, 0.0, 0.0, 1.6879227422020223E9, 0.0, 2023-06-28 12:25:42.202
90.0, -175.23488237382844, -207.07826054655015, -173.95957648893818, -167.00336257135496, -0.03200000151991844, 0.01600000075995922, 0.9920000471174717, 0.0, 0.0, 0.0, 0.0, 0.0, 1.6879227422020223E9, 0.0, 2023-06-28 12:25:42.202
91.0, -262.2099957433529, -325.3488567452878, -190.6320504914038, -185.93847604701295, -0.03200000151991844, 0.01600000075995922, 0.9920000471174717, 0.0, 0.0, 0.0, 0.0, 0.0, 1.6879227422155893E9, 0.0, 2023-06-28 12:25:42.215
91.0, -161.67026523454115, -206.7678488502279, -4.115759901236743, -51.39557514106855, -0.03200000151991844, 0.01600000075995922, 0.9920000471174717, 0.0, 0.0, 0.0, 0.0, 0.0, 1.6879227422155893E9, 0.0, 2023-06-28 12:25:42.215
92.0, -102.66586363362148, -168.99859919771552, -82.53398217214271, -107.25098097929731, -0.03200000151991844, 0.01600000075995922, 0.9920000471174717, 0.0, 0.0, 0.0, 0.0, 0.0, 1.6879227422311895E9, 0.0, 2023-06-28 12:25:42.231
92.0, -219.22732555260882, -286.1360057098791, -218.21007276466116, -208.47137328004465, -0.03200000151991844, 0.01600000075995922, 0.9920000471174717, 0.0, 0.0, 0.0, 0.0, 0.0, 1.6879227422311895E9, 0.0, 2023-06-28 12:25:42.231
93.0, -201.98638675687835, -233.444555234164, -48.17552127921954, -80.60045389505103, -0.03200000151991844, 0.01600000075995922, 0.9920000471174717, 0.0, 0.0, 0.0, 0.0, 0.0, 1.687922742232032E9, 0.0, 2023-06-28 12:25:42.232
93.0, -120.7071410198696, -149.7717735255137, -19.778460915666074, -58.65098105510697, -0.03200000151991844, 0.01600000075995922, 0.9920000471174717, 0.0, 0.0, 0.0, 0.0, 0.0, 1.687922742232032E9, 0.0, 2023-06-28 12:25:42.232
94.0, -217.0843628779985, -265.8021696507931, -227.8702343502082, -212.46932633267716, -0.03200000151991844, 0.01600000075995922, 0.9920000471174717, 0.0, 0.0, 0.0, 0.0, 0.0, 1.6879227422454882E9, 0.0, 2023-06-28 12:25:42.245
94.0, -241.0272023943253, -311.223254612647, -130.3411233057268, -142.02457076730207, -0.03200000151991844, 0.01600000075995922, 0.9920000471174717, 0.0, 0.0, 0.0, 0.0, 0.0, 1.6879227422454882E9, 0.0, 2023-06-28 12:25:42.245
95.0, -153.00491703720763, -177.89208129234612, 7.238576364237815, -43.040638640057296, -0.03200000151991844, 0.01600000075995922, 0.9920000471174717, 0.0, 0.0, 0.0, 0.0, 0.0, 1.687922742261299E9, 0.0, 2023-06-28 12:25:42.261
95.0, -163.686071310658, -211.16223129816353, -167.74386276258156, -166.34140027919784, -0.03200000151991844, 0.01600000075995922, 0.9920000471174717, 0.0, 0.0, 0.0, 0.0, 0.0, 1.687922742261299E9, 0.0, 2023-06-28 12:25:42.261
96.0, -231.9429854019545, -271.14648668747395, -175.36951877223328, -178.0659866402857, -0.03200000151991844, 0.01600000075995922, 0.9920000471174717, 0.0, 0.0, 0.0, 0.0, 0.0, 1.6879227422618208E9, 0.0, 2023-06-28 12:25:42.261
96.0, -164.92023829603568, -213.9484567651525, 0.5890342430211604, -42.41981524741277, -0.03200000151991844, 0.01600000075995922, 0.9920000471174717, 0.0, 0.0, 0.0, 0.0, 0.0, 1.6879227422618208E9, 0.0, 2023-06-28 12:25:42.261
97.0, -128.64320872584358, -167.76443221233785, -80.88842619163916, -98.25652158586308, -0.03200000151991844, 0.01600000075995922, 0.9920000471174717, 0.0, 0.0, 0.0, 0.0, 0.0, 1.6879227422755277E9, 0.0, 2023-06-28 12:25:42.275
97.0, -249.89824508922175, -293.469949522987, -228.6855325405486, -214.90400120383129, -0.03200000151991844, 0.01600000075995922, 0.9920000471174717, 0.0, 0.0, 0.0, 0.0, 0.0, 1.6879227422755277E9, 0.0, 2023-06-28 12:25:42.275
98.0, -201.3319042646326, -251.88974181562662, -49.914574758615345, -78.64074631826952, -0.03200000151991844, 0.01600000075995922, 0.9920000471174717, 0.0, 0.0, 0.0, 0.0, 0.0, 1.6879227423067431E9, 0.0, 2023-06-28 12:25:42.306
98.0, -107.49033457646146, -174.44389353320003, -23.701615969184786, -59.952466239687055, -0.03200000151991844, 0.01600000075995922, 0.9920000471174717, 0.0, 0.0, 0.0, 0.0, 0.0, 1.6879227423067431E9, 0.0, 2023-06-28 12:25:42.306
99.0, -200.49416667455807, -266.07144244760275, -223.48333170218393, -212.97795272665098, -0.03200000151991844, 0.01600000075995922, 0.9920000471174717, 0.0, 0.0, 0.0, 0.0, 0.0, 1.687922742307488E9, 0.0, 2023-06-28 12:25:42.307
99.0, -253.11081915115938, -276.81243512034416, -122.11708330316469, -138.01539801480249, -0.03200000151991844, 0.01600000075995922, 0.9920000471174717, 0.0, 0.0, 0.0, 0.0, 0.0, 1.687922742307488E9, 0.0, 2023-06-28 12:25:42.307
100.0, -150.1289339712821, -174.29803743492812, 10.555867624934763, -34.54358594072983, -0.03200000151991844, 0.01600000075995922, 0.9920000471174717, 0.0, 0.0, 0.0, 0.0, 0.0, 1.6879227423225589E9, 0.0, 2023-06-28 12:25:42.322
100.0, -183.01013438170776, -200.57083462364972, -177.80045374343172, -175.72106936806813, -0.03200000151991844, 0.01600000075995922, 0.9920000471174717, 0.0, 0.0, 0.0, 0.0, 0.0, 1.6879227423225589E9, 0.0, 2023-06-28 12:25:42.322
0.0, -252.44885685900226, -301.28821038035676, -185.50651760213077, -189.79057300137356, -0.03200000151991844, 0.01600000075995922, 0.9920000471174717, 0.0, 0.0, 0.0, 0.0, 0.0, 1.687922742323322E9, 0.0, 2023-06-28 12:25:42.323
1.0, -167.45215056603774, -240.03612890606746, -9.757398984394968, -52.18843393167481, -0.03200000151991844, 0.01600000075995922, 0.9920000471174717, 0.0, 0.0, 0.0, 0.0, 0.0, 1.6879227423240602E9, 0.0, 2023-06-28 12:25:42.324
1.0, -126.02153885690495, -181.81710629584268, -87.47625996358693, -105.53436689963564, -0.03200000151991844, 0.01600000075995922, 0.9920000471174717, 0.0, 0.0, 0.0, 0.0, 0.0, 1.6879227423240602E9, 0.0, 2023-06-28 12:25:42.324
2.0, -240.7242704979144, -289.13727542432025, -227.37469760607928, -218.40454756235704, -0.01600000075995922, 0.01600000075995922, 0.9920000471174717, 0.0, 0.0, 0.0, 0.0, 0.0, 1.6879227423248105E9, 0.0, 2023-06-28 12:25:42.324
2.0, -224.02187729580328, -240.75044979760423, -55.66093104053289, -86.44591752579436, -0.01600000075995922, 0.01600000075995922, 0.9920000471174717, 0.0, 0.0, 0.0, 0.0, 0.0, 1.6879227423248105E9, 0.0, 2023-06-28 12:25:42.324
3.0, -108.2944130669348, -150.274790069554, -15.816036912612617, -56.44070018129423, -0.01600000075995922, 0.01600000075995922, 0.9920000471174717, 0.0, 0.0, 0.0, 0.0, 0.0, 1.6879227423354979E9, 0.0, 2023-06-28 12:25:42.335
3.0, -193.1153440619819, -252.2095032618381, -218.0997457159683, -201.68345486046746, -0.01600000075995922, 0.01600000075995922, 0.9920000471174717, 0.0, 0.0, 0.0, 0.0, 0.0, 1.6879227423354979E9, 0.0, 2023-06-28 12:25:42.335
4.0, -250.2460557851009, -298.25515151629224, -125.27168891578913, -139.77315099397674, -0.01600000075995922, 0.01600000075995922, 0.9920000471174717, 0.0, 0.0, 0.0, 0.0, 0.0, 1.6879227423504984E9, 0.0, 2023-06-28 12:25:42.350
4.0, -131.36211599363014, -191.6605229792185, 5.751966131851077, -39.394236183259636, -0.01600000075995922, 0.01600000075995922, 0.9920000471174717, 0.0, 0.0, 0.0, 0.0, 0.0, 1.6879227423504984E9, 0.0, 2023-06-28 12:25:42.350
5.0, -179.48340872349218, -237.07038824120536, -180.41277386248112, -175.04788737604395, -0.01600000075995922, 0.01600000075995922, 0.9920000471174717, 0.0, 0.0, 0.0, 0.0, 0.0, 1.6879227423662195E9, 0.0, 2023-06-28 12:25:42.366
5.0, -255.62777182133868, -300.91422038478777, -190.76481693983078, -188.1487569208257, -0.01600000075995922, 0.01600000075995922, 0.9920000471174717, 0.0, 0.0, 0.0, 0.0, 0.0, 1.6879227423662195E9, 0.0, 2023-06-28 12:25:42.366
6.0, -172.60947260493413, -199.409595687408, 0.7965986905619502, -50.98418614594266, -0.01600000075995922, 0.01600000075995922, 0.9920000471174717, 0.0, 0.0, 0.0, 0.0, 0.0, 1.6879227423668885E9, 0.0, 2023-06-28 12:25:42.366
6.0, -132.98523257439956, -164.49014980113134, -89.8922353349626, -109.96240844717249, -0.01600000075995922, 0.01600000075995922, 0.9920000471174717, 0.0, 0.0, 0.0, 0.0, 0.0, 1.6879227423668885E9, 0.0, 2023-06-28 12:25:42.366
7.0, -244.8718195487745, -284.58207727828994, -222.57640596292913, -216.99834517901763, -0.01600000075995922, 0.01600000075995922, 0.9920000471174717, 0.0, 0.0, 0.0, 0.0, 0.0, 1.6879227423804965E9, 0.0, 2023-06-28 12:25:42.380
7.0, -227.40648675570264, -249.63645209232345, -56.536067630164325, -83.6858713584952, -0.01600000075995922, 0.01600000075995922, 0.9920000471174717, 0.0, 0.0, 0.0, 0.0, 0.0, 1.6879227423804965E9, 0.0, 2023-06-28 12:25:42.380
8.0, -124.19272777857259, -157.18986508762464, -22.383301234804094, -62.806009905878454, -0.01600000075995922, 0.01600000075995922, 0.9920000471174717, 0.0, 0.0, 0.0, 0.0, 0.0, 1.687922742396155E9, 0.0, 2023-06-28 12:25:42.396
8.0, -202.4837934509851, -260.3662250651978, -220.1005921922624, -208.00014588562772, -0.01600000075995922, 0.01600000075995922, 0.9920000471174717, 0.0, 0.0, 0.0, 0.0, 0.0, 1.687922742396155E9, 0.0, 2023-06-28 12:25:42.396
9.0, -233.52870298316702, -305.9518656251021, -126.77886859793216, -139.51135799707845, -0.01600000075995922, 0.01600000075995922, 0.9920000471174717, 0.0, 0.0, 0.0, 0.0, 0.0, 1.6879227423968604E9, 0.0, 2023-06-28 12:25:42.396
9.0, -143.99923794390634, -179.6591840214096, 6.189534426666796, -38.55275869322941, -0.01600000075995922, 0.01600000075995922, 0.9920000471174717, 0.0, 0.0, 0.0, 0.0, 0.0, 1.6879227423968604E9, 0.0, 2023-06-28 12:25:42.396
10.0, -169.74096933891997, -212.09907623706385, -171.7885645646602, -170.19349723355845, -0.01600000075995922, 0.01600000075995922, 0.9920000471174717, 0.0, 0.0, 0.0, 0.0, 0.0, 1.6879227424107084E9, 0.0, 2023-06-28 12:25:42.410
10.0, -229.74392422800884, -281.1451092190109, -175.9024545159191, -179.1767369271256, -0.01600000075995922, 0.01600000075995922, 0.9920000471174717, 0.0, 0.0, 0.0, 0.0, 0.0, 1.6879227424107084E9, 0.0, 2023-06-28 12:25:42.410
11.0, -176.2483952618204, -183.94136947067454, 3.9306348534300923, -40.14595607435331, -0.01600000075995922, 0.01600000075995922, 0.9920000471174717, 0.0, 0.0, 0.0, 0.0, 0.0, 1.6879227424261808E9, 0.0, 2023-06-28 12:25:42.426
11.0, -127.65961503749713, -168.992989347782, -90.43826072849333, -106.23372819134966, -0.01600000075995922, 0.01600000075995922, 0.9920000471174717, 0.0, 0.0, 0.0, 0.0, 0.0, 1.6879227424261808E9, 0.0, 2023-06-28 12:25:42.426
12.0, -245.67215813929215, -305.1964058340527, -231.71672145463526, -220.31937633967027, -0.01600000075995922, 0.01600000075995922, 0.9920000471174717, 0.0, 0.0, 0.0, 0.0, 0.0, 1.6879227424268947E9, 0.0, 2023-06-28 12:25:42.426
12.0, -209.45870686834678, -254.19913003826514, -57.766494715586305, -91.9510502605699, -0.01600000075995922, 0.01600000075995922, 0.9920000471174717, 0.0, 0.0, 0.0, 0.0, 0.0, 1.6879227424268947E9, 0.0, 2023-06-28 12:25:42.426
13.0, -126.89667544653639, -163.19988431641832, -22.611435132101178, -60.749064930249006, -0.01600000075995922, 0.01600000075995922, 0.9920000471174717, 0.0, 0.0, 0.0, 0.0, 0.0, 1.6879227424405117E9, 0.0, 2023-06-28 12:25:42.440
13.0, -229.65790652902797, -257.1087722037919, -222.26225436665118, -210.3375833579339, -0.01600000075995922, 0.01600000075995922, 0.9920000471174717, 0.0, 0.0, 0.0, 0.0, 0.0, 1.6879227424405117E9, 0.0, 2023-06-28 12:25:42.440
14.0, -226.98761796066537, -279.87354323407635, -120.8361675683409, -141.32894937554374, -0.01600000075995922, 0.01600000075995922, 0.9920000471174717, 0.0, 0.0, 0.0, 0.0, 0.0, 1.6879227424561284E9, 0.0, 2023-06-28 12:25:42.456
14.0, -129.35004981746897, -174.56918018171564, 10.44554057624191, -35.59449782827869, -0.01600000075995922, 0.01600000075995922, 0.9920000471174717, 0.0, 0.0, 0.0, 0.0, 0.0, 1.6879227424561284E9, 0.0, 2023-06-28 12:25:42.456
15.0, -150.86195436259732, -216.14190808916464, -172.3383298581466, -168.07297395868227, -0.01600000075995922, 0.01600000075995922, 0.9920000471174717, 0.0, 0.0, 0.0, 0.0, 0.0, 1.687922742456848E9, 0.0, 2023-06-28 12:25:42.456
15.0, -221.63208122411743, -291.57569019543007, -179.05519017856568, -179.27023442601785, -0.01600000075995922, 0.01600000075995922, 0.9920000471174717, 0.0, 0.0, 0.0, 0.0, 0.0, 1.687922742456848E9, 0.0, 2023-06-28 12:25:42.456
16.0, -180.71009590895846, -203.0821774438955, 1.6305963806807995, -47.62949588568881, -0.01600000075995922, 0.01600000075995922, 0.9920000471174717, 0.0, 0.0, 0.0, 0.0, 0.0, 1.6879227424704924E9, 0.0, 2023-06-28 12:25:42.470
16.0, -125.1912810667418, -153.13581353565678, -81.50737963430583, -101.94032304221764, -0.01600000075995922, 0.01600000075995922, 0.9920000471174717, 0.0, 0.0, 0.0, 0.0, 0.0, 1.6879227424704924E9, 0.0, 2023-06-28 12:25:42.470
17.0, -243.69749096268788, -301.4153669788502, -222.98031515814364, -205.32611741730943, -0.01600000075995922, 0.01600000075995922, 0.9920000471174717, 0.0, 0.0, 0.0, 0.0, 0.0, 1.68792274248615E9, 0.0, 2023-06-28 12:25:42.486
17.0, -203.95731403352693, -246.0985067342408, -48.061454330570996, -80.24516339926049, -0.01600000075995922, 0.01600000075995922, 0.9920000471174717, 0.0, 0.0, 0.0, 0.0, 0.0, 1.68792274248615E9, 0.0, 2023-06-28 12:25:42.486
18.0, -104.67045000987127, -154.0595688247122, -14.241539031267166, -56.306063782889396, -0.01600000075995922, 0.01600000075995922, 0.9920000471174717, 0.0, 0.0, 0.0, 0.0, 0.0, 1.687922742486894E9, 0.0, 2023-06-28 12:25:42.486
18.0, -217.88470146851614, -261.97438204614446, -225.65060372650623, -211.01824514986947, -0.01600000075995922, 0.01600000075995922, 0.9920000471174717, 0.0, 0.0, 0.0, 0.0, 0.0, 1.687922742486894E9, 0.0, 2023-06-28 12:25:42.486
19.0, -245.75817583827302, -278.76653284719214, -119.56460158340633, -135.2703114473261, -0.01600000075995922, 0.01600000075995922, 0.9920000471174717, 0.0, 0.0, 0.0, 0.0, 0.0, 1.687922742500847E9, 0.0, 2023-06-28 12:25:42.500
19.0, -154.10818752413616, -161.37855303799734, 9.031858392991126, -40.246933373156935, -0.01600000075995922, 0.01600000075995922, 0.9920000471174717, 0.0, 0.0, 0.0, 0.0, 0.0, 1.687922742500847E9, 0.0, 2023-06-28 12:25:42.500
20.0, -148.1954056941904, -176.31571346102282, -160.27341260109097, -160.25658305129036, -0.01600000075995922, 0.01600000075995922, 1.008000047877431, 0.0, 0.0, 0.0, 0.0, 0.0, 1.6879227425161805E9, 0.0, 2023-06-28 12:25:42.516
20.0, -241.8350207847543, -289.309310822282, -177.43207359779626, -177.63963804533705, -0.01600000075995922, 0.01600000075995922, 1.008000047877431, 0.0, 0.0, 0.0, 0.0, 0.0, 1.6879227425161805E9, 0.0, 2023-06-28 12:25:42.516
21.0, -160.9447246431373, -209.492365967948, 2.4047556715086102, -45.086363915819675, -0.01600000075995922, 0.01600000075995922, 1.008000047877431, 0.0, 0.0, 0.0, 0.0, 0.0, 1.687922742516913E9, 0.0, 2023-06-28 12:25:42.516
21.0, -128.82646382367238, -174.8384529785253, -88.68798754923046, -111.20779513241723, -0.01600000075995922, 0.01600000075995922, 1.008000047877431, 0.0, 0.0, 0.0, 0.0, 0.0, 1.687922742516913E9, 0.0, 2023-06-28 12:25:42.516
22.0, -237.3172216382809, -304.3137894445099, -223.39544405322522, -209.54098466737196, -0.03200000151991844, 0.01600000075995922, 1.008000047877431, 0.0, 0.0, 0.0, 0.0, 0.0, 1.6879227425304635E9, 0.0, 2023-06-28 12:25:42.530
22.0, -201.28328556520864, -258.7618079842068, -53.91813766118139, -85.25288943992928, -0.03200000151991844, 0.01600000075995922, 1.008000047877431, 0.0, 0.0, 0.0, 0.0, 0.0, 1.6879227425304635E9, 0.0, 2023-06-28 12:25:42.530
23.0, -129.61932261427864, -161.1317196409218, -28.038029967807233, -68.08300874335691, -0.03200000151991844, 0.01600000075995922, 1.008000047877431, 0.0, 0.0, 0.0, 0.0, 0.0, 1.6879227425463655E9, 0.0, 2023-06-28 12:25:42.546
23.0, -221.7891570222564, -246.132165833842, -222.09021896868944, -208.40405508084223, -0.03200000151991844, 0.01600000075995922, 1.008000047877431, 0.0, 0.0, 0.0, 0.0, 0.0, 1.6879227425463655E9, 0.0, 2023-06-28 12:25:42.546
24.0, -250.2161365854554, -261.6639703498222, -120.49583667237312, -138.9354134039022, -0.03200000151991844, 0.01600000075995922, 1.008000047877431, 0.0, 0.0, 0.0, 0.0, 0.0, 1.6879227425469449E9, 0.0, 2023-06-28 12:25:42.546
24.0, -148.63297398900613, -166.61067307600752, 13.30656404234469, -34.53984604077414, -0.03200000151991844, 0.01600000075995922, 1.008000047877431, 0.0, 0.0, 0.0, 0.0, 0.0, 1.6879227425469449E9, 0.0, 2023-06-28 12:25:42.546
25.0, -141.6431009718217, -218.58032286027446, -165.21008054260164, -160.63431294681504, -0.03200000151991844, 0.01600000075995922, 1.008000047877431, 0.0, 0.0, 0.0, 0.0, 0.0, 1.6879227425605264E9, 0.0, 2023-06-28 12:25:42.560
25.0, -233.74935708055273, -289.72817961731926, -177.15158110111952, -181.53661379916593, -0.03200000151991844, 0.01600000075995922, 1.008000047877431, 0.0, 0.0, 0.0, 0.0, 0.0, 1.6879227425605264E9, 0.0, 2023-06-28 12:25:42.560
26.0, -151.89790665032342, -200.57270457362756, 6.959953817538917, -40.1870949738659, -0.03200000151991844, 0.01600000075995922, 1.008000047877431, 0.0, 0.0, 0.0, 0.0, 0.0, 1.6879227425762837E9, 0.0, 2023-06-28 12:25:42.576
26.0, -113.05156581057236, -161.18407824030146, -80.28069244883955, -98.27148118568584, -0.03200000151991844, 0.01600000075995922, 1.008000047877431, 0.0, 0.0, 0.0, 0.0, 0.0, 1.6879227425762837E9, 0.0, 2023-06-28 12:25:42.576
27.0, -248.15171180991456, -279.17418194236234, -223.08877225685865, -208.38535558106378, -0.03200000151991844, 0.01600000075995922, 1.008000047877431, 0.0, 0.0, 0.0, 0.0, 0.0, 1.6879227425769868E9, 0.0, 2023-06-28 12:25:42.576
27.0, -220.43157333834097, -250.582646781113, -55.286941044963896, -86.95828381972387, -0.03200000151991844, 0.01600000075995922, 1.008000047877431, 0.0, 0.0, 0.0, 0.0, 0.0, 1.6879227425769868E9, 0.0, 2023-06-28 12:25:42.576
28.0, -141.6431009718217, -170.82180042611435, -24.803016506135464, -61.00711802719161, -0.03200000151991844, 0.01600000075995922, 1.008000047877431, 0.0, 0.0, 0.0, 0.0, 0.0, 1.687922742590508E9, 0.0, 2023-06-28 12:25:42.590
28.0, -201.8143513589166, -244.26595575595275, -220.1379911918193, -210.2702651587315, -0.03200000151991844, 0.01600000075995922, 1.008000047877431, 0.0, 0.0, 0.0, 0.0, 0.0, 1.687922742590508E9, 0.0, 2023-06-28 12:25:42.590
29.0, -227.02875686017796, -269.83191185304895, -118.27433609869331, -132.39806828135625, -0.03200000151991844, 0.01600000075995922, 1.008000047877431, 0.0, 0.0, 0.0, 0.0, 0.0, 1.6879227426061687E9, 0.0, 2023-06-28 12:25:42.606
29.0, -142.27888396428898, -163.0203691185452, 12.547364351339638, -36.05824542278424, -0.03200000151991844, 0.01600000075995922, 1.008000047877431, 0.0, 0.0, 0.0, 0.0, 0.0, 1.6879227426061687E9, 0.0, 2023-06-28 12:25:42.606
30.0, -152.8665407388471, -211.7101266416721, -165.28487854171544, -165.54854148859158, -0.03200000151991844, 0.01600000075995922, 0.9920000471174717, 0.0, 0.0, 0.0, 0.0, 0.0, 1.687922742606884E9, 0.0, 2023-06-28 12:25:42.606
30.0, -245.21963024465367, -292.61538238311186, -181.65068074781448, -181.09904550435022, -0.03200000151991844, 0.01600000075995922, 0.9920000471174717, 0.0, 0.0, 0.0, 0.0, 0.0, 1.687922742606884E9, 0.0, 2023-06-28 12:25:42.606
31.0, -173.81746029062197, -209.95237366249785, -7.019792216829956, -49.862216159235686, -0.03200000151991844, 0.01600000075995922, 0.9920000471174717, 0.0, 0.0, 0.0, 0.0, 0.0, 1.687922742620503E9, 0.0, 2023-06-28 12:25:42.620
31.0, -140.1209616898559, -170.86667922558263, -90.32232382986695, -111.54812602838501, -0.03200000151991844, 0.01600000075995922, 0.9920000471174717, 0.0, 0.0, 0.0, 0.0, 0.0, 1.687922742620503E9, 0.0, 2023-06-28 12:25:42.620
32.0, -252.2543820613064, -301.0488567831926, -229.57749867998064, -217.03200427861884, -0.03200000151991844, 0.01600000075995922, 0.9920000471174717, 0.0, 0.0, 0.0, 0.0, 0.0, 1.6879227426367838E9, 0.0, 2023-06-28 12:25:42.636
32.0, -217.4134740740992, -271.23437433643267, -57.56828001793474, -89.57247388875112, -0.03200000151991844, 0.01600000075995922, 0.9920000471174717, 0.0, 0.0, 0.0, 0.0, 0.0, 1.6879227426367838E9, 0.0, 2023-06-28 12:25:42.636
33.0, -109.65199675085023, -151.17610595887527, -21.829796041361988, -62.65641390765086, -0.03200000151991844, 0.01600000075995922, 0.9920000471174717, 0.0, 0.0, 0.0, 0.0, 0.0, 1.687922742651186E9, 0.0, 2023-06-28 12:25:42.651
33.0, -194.08023825054988, -240.84394729649648, -215.13400505110621, -199.32357798842713, -0.03200000151991844, 0.01600000075995922, 0.9920000471174717, 0.0, 0.0, 0.0, 0.0, 0.0, 1.687922742651186E9, 0.0, 2023-06-28 12:25:42.651
34.0, -238.00536323012784, -274.5142665975727, -114.41849924437702, -129.6716812136583, -0.03200000151991844, 0.01600000075995922, 0.9920000471174717, 0.0, 0.0, 0.0, 0.0, 0.0, 1.6879227426518757E9, 0.0, 2023-06-28 12:25:42.651
34.0, -172.2093033096753, -184.767887360882, -1.8362908782437444, -45.35937661258504, -0.03200000151991844, 0.01600000075995922, 0.9920000471174717, 0.0, 0.0, 0.0, 0.0, 0.0, 1.6879227426518757E9, 0.0, 2023-06-28 12:25:42.651
35.0, -158.67460537003353, -206.36954950494692, -172.18125406000763, -165.7691955859773, -0.03200000151991844, 0.01600000075995922, 0.9920000471174717, 0.0, 0.0, 0.0, 0.0, 0.0, 1.6879227426662164E9, 0.0, 2023-06-28 12:25:42.666
35.0, -238.0614617294632, -291.0932431011461, -175.9323737155646, -179.4422698239796, -0.03200000151991844, 0.01600000075995922, 0.9920000471174717, 0.0, 0.0, 0.0, 0.0, 0.0, 1.6879227426662164E9, 0.0, 2023-06-28 12:25:42.666
36.0, -157.571334883105, -197.12077691452578, 2.857283566147089, -42.17672175029293, -0.03200000151991844, 0.01600000075995922, 0.9920000471174717, 0.0, 0.0, 0.0, 0.0, 0.0, 1.687922742666958E9, 0.0, 2023-06-28 12:25:42.666
36.0, -116.77276626648381, -165.8365137851797, -89.17043464351445, -105.0668794051744, -0.03200000151991844, 0.01600000075995922, 0.9920000471174717, 0.0, 0.0, 0.0, 0.0, 0.0, 1.687922742666958E9, 0.0, 2023-06-28 12:25:42.666
37.0, -241.70038438634947, -309.4711114834063, -226.09939172118902, -212.603962731082, -0.03200000151991844, 0.01600000075995922, 0.9920000471174717, 0.0, 0.0, 0.0, 0.0, 0.0, 1.6879227426805437E9, 0.0, 2023-06-28 12:25:42.680
37.0, -214.7544052056037, -260.1006921683438, -53.57780676521361, -89.84174668556079, -0.03200000151991844, 0.01600000075995922, 0.9920000471174717, 0.0, 0.0, 0.0, 0.0, 0.0, 1.6879227426805437E9, 0.0, 2023-06-28 12:25:42.680
38.0, -133.75565196527168, -162.40328562585637, -23.063963026739657, -58.48642545705661, -0.03200000151991844, 0.01600000075995922, 0.9920000471174717, 0.0, 0.0, 0.0, 0.0, 0.0, 1.6879227426963525E9, 0.0, 2023-06-28 12:25:42.696
38.0, -223.4608923024498, -260.7364751608111, -227.04932630993426, -211.3361366461031, -0.03200000151991844, 0.01600000075995922, 0.9920000471174717, 0.0, 0.0, 0.0, 0.0, 0.0, 1.6879227426963525E9, 0.0, 2023-06-28 12:25:42.696
39.0, -244.9840165474452, -272.0721119265072, -121.92447845544666, -135.0870563494973, -0.03200000151991844, 0.01600000075995922, 0.9920000471174717, 0.0, 0.0, 0.0, 0.0, 0.0, 1.6879227426968937E9, 0.0, 2023-06-28 12:25:42.696
39.0, -133.81549036456272, -162.50426292466, 13.740392437204719, -35.71791452681646, -0.03200000151991844, 0.01600000075995922, 0.9920000471174717, 0.0, 0.0, 0.0, 0.0, 0.0, 1.6879227426968937E9, 0.0, 2023-06-28 12:25:42.696
40.0, -136.0482106381096, -201.21596736600623, -160.333251000382, -159.2393302633427, -0.03200000151991844, 0.01600000075995922, 1.008000047877431, 0.0, 0.0, 0.0, 0.0, 0.0, 1.6879227427105112E9, 0.0, 2023-06-28 12:25:42.710
40.0, -234.2430238747038, -301.74073827499524, -174.3391763344407, -172.9498035009019, -0.03200000151991844, 0.01600000075995922, 1.008000047877431, 0.0, 0.0, 0.0, 0.0, 0.0, 1.6879227427105112E9, 0.0, 2023-06-28 12:25:42.710
41.0, -177.3591455486603, -228.96602503722534, -11.65352826192975, -49.3386301654391, -0.03200000151991844, 0.01600000075995922, 1.008000047877431, 0.0, 0.0, 0.0, 0.0, 0.0, 1.6879227427262328E9, 0.0, 2023-06-28 12:25:42.726
41.0, -134.70184665406123, -192.8872101646848, -95.98453236278147, -115.40022298274562, -0.03200000151991844, 0.01600000075995922, 1.008000047877431, 0.0, 0.0, 0.0, 0.0, 0.0, 1.6879227427262328E9, 0.0, 2023-06-28 12:25:42.726
42.0, -252.23942246148363, -285.3375370693393, -227.1465637087822, -210.4198611569591, -0.01600000075995922, 0.01600000075995922, 1.008000047877431, 0.0, 0.0, 0.0, 0.0, 0.0, 1.6879227427269945E9, 0.0, 2023-06-28 12:25:42.726
42.0, -228.48731784289703, -255.24256212590262, -59.763601291924715, -87.61276631196961, -0.01600000075995922, 0.01600000075995922, 1.008000047877431, 0.0, 0.0, 0.0, 0.0, 0.0, 1.6879227427269945E9, 0.0, 2023-06-28 12:25:42.726
43.0, -125.62884936155751, -151.22846455825493, -26.063362791202962, -63.89806069293991, -0.01600000075995922, 0.01600000075995922, 1.008000047877431, 0.0, 0.0, 0.0, 0.0, 0.0, 1.6879227427404463E9, 0.0, 2023-06-28 12:25:42.740
43.0, -204.95212742174044, -252.74430895550177, -221.74614817276597, -209.08845677273348, -0.01600000075995922, 0.01600000075995922, 1.008000047877431, 0.0, 0.0, 0.0, 0.0, 0.0, 1.6879227427404463E9, 0.0, 2023-06-28 12:25:42.740
44.0, -237.99414353026077, -277.87269675778225, -115.03932263702154, -137.20383972441778, -0.01600000075995922, 0.01600000075995922, 1.008000047877431, 0.0, 0.0, 0.0, 0.0, 0.0, 1.6879227427562127E9, 0.0, 2023-06-28 12:25:42.756
44.0, -127.34172354126349, -180.20894931489602, 14.45845322869718, -35.07839163439348, -0.01600000075995922, 0.01600000075995922, 1.008000047877431, 0.0, 0.0, 0.0, 0.0, 0.0, 1.6879227427562127E9, 0.0, 2023-06-28 12:25:42.756
45.0, -157.24596358696, -217.2339588762261, -173.47899934463203, -167.25767576834187, -0.01600000075995922, 0.01600000075995922, 1.008000047877431, 0.0, 0.0, 0.0, 0.0, 0.0, 1.6879227427569244E9, 0.0, 2023-06-28 12:25:42.756
45.0, -256.0391608164646, -329.08688675099984, -188.0159904723987, -183.79177347244695, -0.01600000075995922, 0.01600000075995922, 1.008000047877431, 0.0, 0.0, 0.0, 0.0, 0.0, 1.6879227427569244E9, 0.0, 2023-06-28 12:25:42.756
46.0, -178.22306243842468, -232.10006120009348, -9.125355891883373, -54.24911880725995, -0.01600000075995922, 0.01600000075995922, 1.008000047877431, 0.0, 0.0, 0.0, 0.0, 0.0, 1.687922742770666E9, 0.0, 2023-06-28 12:25:42.770
46.0, -135.8948747399263, -180.582939310465, -95.66664086654782, -114.20345499692485, -0.01600000075995922, 0.01600000075995922, 1.008000047877431, 0.0, 0.0, 0.0, 0.0, 0.0, 1.687922742770666E9, 0.0, 2023-06-28 12:25:42.770
47.0, -252.6582912565209, -292.6415616828017, -226.87729091197252, -212.79469762882218, -0.01600000075995922, 0.01600000075995922, 1.008000047877431, 0.0, 0.0, 0.0, 0.0, 0.0, 1.6879227427862592E9, 0.0, 2023-06-28 12:25:42.786
47.0, -207.80193118797615, -241.07582109374925, -48.99642931949347, -80.89216609159485, -0.01600000075995922, 0.01600000075995922, 1.008000047877431, 0.0, 0.0, 0.0, 0.0, 0.0, 1.6879227427862592E9, 0.0, 2023-06-28 12:25:42.786
48.0, -111.50324722891673, -149.84844147460535, -16.93052709940821, -56.47061938093975, -0.01600000075995922, 0.01600000075995922, 1.008000047877431, 0.0, 0.0, 0.0, 0.0, 0.0, 1.6879227427869587E9, 0.0, 2023-06-28 12:25:42.786
48.0, -225.22986498149112, -259.2105959788896, -224.80538633652031, -212.77599812904373, -0.01600000075995922, 0.01600000075995922, 1.008000047877431, 0.0, 0.0, 0.0, 0.0, 0.0, 1.6879227427869587E9, 0.0, 2023-06-28 12:25:42.786
49.0, -241.59566718759015, -299.8633084972389, -120.7613695692271, -138.1201152135618, -0.01600000075995922, 0.01600000075995922, 1.008000047877431, 0.0, 0.0, 0.0, 0.0, 0.0, 1.6879227428004723E9, 0.0, 2023-06-28 12:25:42.800
49.0, -117.41228915890679, -207.43542099231854, 7.311504413373768, -41.039792163763195, -0.01600000075995922, 0.01600000075995922, 1.008000047877431, 0.0, 0.0, 0.0, 0.0, 0.0, 1.6879227428004723E9, 0.0, 2023-06-28 12:25:42.800
50.0, -154.3886800208129, -219.68733324715868, -177.3834548983723, -170.38797203125432, -0.01600000075995922, 0.01600000075995922, 1.008000047877431, 0.0, 0.0, 0.0, 0.0, 0.0, 1.6879227428162656E9, 0.0, 2023-06-28 12:25:42.816
50.0, -243.7984682614915, -277.53236586181447, -173.72957264166325, -171.05741412332281, -0.01600000075995922, 0.01600000075995922, 1.008000047877431, 0.0, 0.0, 0.0, 0.0, 0.0, 1.6879227428162656E9, 0.0, 2023-06-28 12:25:42.816
51.0, -166.93978427210823, -210.90230825124308, 0.06731819920241833, -44.03545202827081, -0.01600000075995922, 0.01600000075995922, 1.008000047877431, 0.0, 0.0, 0.0, 0.0, 0.0, 1.6879227428169606E9, 0.0, 2023-06-28 12:25:42.816
51.0, -122.004886304494, -173.67908399226144, -93.46757969260216, -110.57201213994995, -0.01600000075995922, 0.01600000075995922, 1.008000047877431, 0.0, 0.0, 0.0, 0.0, 0.0, 1.6879227428169606E9, 0.0, 2023-06-28 12:25:42.816
52.0, -234.3926198729314, -293.72613266995177, -226.79501311294734, -212.16639443626627, -0.03200000151991844, 0.01600000075995922, 1.008000047877431, 0.0, 0.0, 0.0, 0.0, 0.0, 1.6879227428304453E9, 0.0, 2023-06-28 12:25:42.830
52.0, -218.27739096386358, -267.01576718641445, -56.532327730208635, -86.95828381972387, -0.03200000151991844, 0.01600000075995922, 1.008000047877431, 0.0, 0.0, 0.0, 0.0, 0.0, 1.6879227428304453E9, 0.0, 2023-06-28 12:25:42.830
53.0, -126.42544805211946, -162.9530509193428, -21.463285845704377, -60.16938043711707, -0.03200000151991844, 0.01600000075995922, 1.008000047877431, 0.0, 0.0, 0.0, 0.0, 0.0, 1.687922742846373E9, 0.0, 2023-06-28 12:25:42.846
53.0, -210.1169292605482, -294.6124889594503, -226.4060635175556, -211.94948023883626, -0.03200000151991844, 0.01600000075995922, 1.008000047877431, 0.0, 0.0, 0.0, 0.0, 0.0, 1.687922742846373E9, 0.0, 2023-06-28 12:25:42.846
54.0, -234.4973370716907, -288.98767942609265, -119.16069238819182, -133.10116947302595, -0.03200000151991844, 0.01600000075995922, 1.008000047877431, 0.0, 0.0, 0.0, 0.0, 0.0, 1.687922742846985E9, 0.0, 2023-06-28 12:25:42.846
54.0, -130.46827990422025, -150.5365830664523, 15.599122715182602, -34.80537893762812, -0.03200000151991844, 0.01600000075995922, 1.008000047877431, 0.0, 0.0, 0.0, 0.0, 0.0, 1.687922742846985E9, 0.0, 2023-06-28 12:25:42.846
55.0, -155.76496320450678, -194.8543975413777, -169.9298342866823, -164.64348569931462, -0.03200000151991844, 0.01600000075995922, 1.008000047877431, 0.0, 0.0, 0.0, 0.0, 0.0, 1.6879227428604927E9, 0.0, 2023-06-28 12:25:42.860
55.0, -245.6123197400011, -300.7534046866931, -175.35268922243267, -176.6223852573894, -0.03200000151991844, 0.01600000075995922, 1.008000047877431, 0.0, 0.0, 0.0, 0.0, 0.0, 1.6879227428604927E9, 0.0, 2023-06-28 12:25:42.860
56.0, -165.9524506838061, -226.20971876988187, -4.379422848112881, -51.937860634643584, -0.03200000151991844, 0.01600000075995922, 1.008000047877431, 0.0, 0.0, 0.0, 0.0, 0.0, 1.6879227428764164E9, 0.0, 2023-06-28 12:25:42.876
56.0, -139.66469389526173, -192.2177680726163, -97.22243924811482, -113.58637150423601, -0.03200000151991844, 0.01600000075995922, 1.008000047877431, 0.0, 0.0, 0.0, 0.0, 0.0, 1.6879227428764164E9, 0.0, 2023-06-28 12:25:42.876
57.0, -252.94252365315333, -317.6839317861013, -232.1094109499827, -215.83897619275376, -0.03200000151991844, 0.01600000075995922, 1.008000047877431, 0.0, 0.0, 0.0, 0.0, 0.0, 1.6879227428771477E9, 0.0, 2023-06-28 12:25:42.877
57.0, -206.3770293048583, -276.8965828693472, -53.99667556025088, -81.34469398623332, -0.03200000151991844, 0.01600000075995922, 1.008000047877431, 0.0, 0.0, 0.0, 0.0, 0.0, 1.6879227428771477E9, 0.0, 2023-06-28 12:25:42.877
58.0, -99.4345900719054, -162.15271232882515, -19.443739869631827, -58.751958353910595, -0.03200000151991844, 0.01600000075995922, 1.008000047877431, 0.0, 0.0, 0.0, 0.0, 0.0, 1.6879227428905313E9, 0.0, 2023-06-28 12:25:42.890
58.0, -193.87454375298694, -247.97219661204144, -218.72430900856853, -203.82641753507778, -0.03200000151991844, 0.01600000075995922, 1.008000047877431, 0.0, 0.0, 0.0, 0.0, 0.0, 1.6879227428905313E9, 0.0, 2023-06-28 12:25:42.890
59.0, -228.14324704697356, -280.21013423008844, -113.11327415984124, -132.13627528445795, -0.03200000151991844, 0.01600000075995922, 1.008000047877431, 0.0, 0.0, 0.0, 0.0, 0.0, 1.6879227429062288E9, 0.0, 2023-06-28 12:25:42.906
59.0, -143.63272774824873, -184.57715246314183, 16.612635603174567, -33.66844935109839, -0.03200000151991844, 0.01600000075995922, 1.008000047877431, 0.0, 0.0, 0.0, 0.0, 0.0, 1.6879227429062288E9, 0.0, 2023-06-28 12:25:42.906
60.0, -190.86392428865656, -227.65706005273387, -184.7547977110371, -175.75098856771365, -0.03200000151991844, 0.01600000075995922, 1.008000047877431, 0.0, 0.0, 0.0, 0.0, 0.0, 1.687922742906964E9, 0.0, 2023-06-28 12:25:42.906
60.0, -244.74466295028105, -297.28651742776856, -178.94299317989498, -181.06164650479332, -0.03200000151991844, 0.01600000075995922, 1.008000047877431, 0.0, 0.0, 0.0, 0.0, 0.0, 1.687922742906964E9, 0.0, 2023-06-28 12:25:42.906
61.0, -197.62192350858822, -248.1741512096487, -6.9001154182478786, -44.56277792202309, -0.03200000151991844, 0.01600000075995922, 1.008000047877431, 0.0, 0.0, 0.0, 0.0, 0.0, 1.687922742920555E9, 0.0, 2023-06-28 12:25:42.920
61.0, -163.5439551123418, -212.35712933400646, -111.22088478226215, -118.6314965444617, -0.03200000151991844, 0.01600000075995922, 1.008000047877431, 0.0, 0.0, 0.0, 0.0, 0.0, 1.687922742920555E9, 0.0, 2023-06-28 12:25:42.920
62.0, -216.6056556836702, -270.3293185471557, -222.83071915991604, -210.47969955625013, -0.03200000151991844, 0.01600000075995922, 1.008000047877431, 0.0, 0.0, 0.0, 0.0, 0.0, 1.6879227429362009E9, 0.0, 2023-06-28 12:25:42.936
62.0, -181.26734100235626, -250.89305847743526, -45.78759515751153, -77.99748352589086, -0.03200000151991844, 0.01600000075995922, 1.008000047877431, 0.0, 0.0, 0.0, 0.0, 0.0, 1.6879227429362009E9, 0.0, 2023-06-28 12:25:42.936
63.0, -109.15459005674347, -166.9098650724627, -15.528064616024494, -54.376275405753404, -0.03200000151991844, 0.01600000075995922, 1.008000047877431, 0.0, 0.0, 0.0, 0.0, 0.0, 1.6879227429370046E9, 0.0, 2023-06-28 12:25:42.937
63.0, -197.84631750592962, -247.9497572123073, -225.08961873315275, -207.91786808660254, -0.03200000151991844, 0.01600000075995922, 1.008000047877431, 0.0, 0.0, 0.0, 0.0, 0.0, 1.6879227429370046E9, 0.0, 2023-06-28 12:25:42.937
64.0, -246.6220927280374, -292.02447819011286, -117.3879798091948, -133.6397150666453, -0.03200000151991844, 0.01600000075995922, 1.008000047877431, 0.0, 0.0, 0.0, 0.0, 0.0, 1.687922742950494E9, 0.0, 2023-06-28 12:25:42.950
64.0, -141.6057019722648, -193.59779115626588, 10.022931881248951, -35.2205078327097, -0.03200000151991844, 0.01600000075995922, 1.008000047877431, 0.0, 0.0, 0.0, 0.0, 0.0, 1.687922742950494E9, 0.0, 2023-06-28 12:25:42.950
