%OpenBCI Raw EEG Data
%Number of channels = 4
%Sample Rate = 200 Hz
%Board = OpenBCI_GUI$BoardGanglionBLE
Sample Index, EXG Channel 0, EXG Channel 1, EXG Channel 2, EXG Channel 3, Accel Channel 0, Accel Channel 1, Accel Channel 2, Other, Other, Other, Other, Other, Timestamp, Other, Timestamp (Formatted)
94.0, -36.35930736921728, -43.700730982236564, 14.858622523956, -20.633028055541217, 0.0, 0.0, 0.0, 0.0, 0.0, 0.0, 0.0, 0.0, 1.6879228607540524E9, 0.0, 2023-06-28 12:27:40.754
94.0, 199.14219284057617, -241.1281796931289, 257.8960211444646, 209.1015464225784, 0.0, 0.0, 0.0, 0.0, 0.0, 0.0, 0.0, 0.0, 1.6879228607540524E9, 0.0, 2023-06-28 12:27:40.754
0.0, -208.67145792767406, -290.2573754610494, -234.24863372463733, -232.81812199158594, 0.0, 0.0, 0.0, 0.0, 0.0, 0.0, 0.0, 0.0, 1.6879228607778654E9, 0.0, 2023-06-28 12:27:40.777
1.0, -238.28772567678243, -324.57469745445997, -125.466163713485, -155.2750363103114, 0.0, -0.01600000075995922, 0.0, 0.0, 0.0, 0.0, 0.0, 0.0, 1.6879228607911656E9, 0.0, 2023-06-28 12:27:40.791
1.0, -159.7049478078261, -209.92432441283017, -24.414066910743713, -66.39631386334077, 0.0, -0.01600000075995922, 0.0, 0.0, 0.0, 0.0, 0.0, 0.0, 1.6879228607911656E9, 0.0, 2023-06-28 12:27:40.791
2.0, -165.46065383963287, -248.13488226011395, -195.70148488134146, -201.35060376441106, -0.01600000075995922, -0.01600000075995922, 0.0, 0.0, 0.0, 0.0, 0.0, 0.0, 1.6879228608387601E9, 0.0, 2023-06-28 12:27:40.838
2.0, -237.8202381823212, -335.35682902671397, -178.35582888685167, -200.09773727925494, -0.01600000075995922, -0.01600000075995922, 0.0, 0.0, 0.0, 0.0, 0.0, 0.0, 1.6879228608387601E9, 0.0, 2023-06-28 12:27:40.838
3.0, -155.74813365470618, -211.5848399931565, -15.70383991394192, -60.45735273370519, -0.01600000075995922, -0.01600000075995922, 0.0, 0.0, 0.0, 0.0, 0.0, 0.0, 1.6879228608394785E9, 0.0, 2023-06-28 12:27:40.839
3.0, -110.26721029356122, -178.7185991825536, -104.51524416171014, -125.22120026638731, -0.01600000075995922, -0.01600000075995922, 0.0, 0.0, 0.0, 0.0, 0.0, 0.0, 1.6879228608394785E9, 0.0, 2023-06-28 12:27:40.839
4.0, -213.2453555734828, -284.6475255275145, -213.46600967086852, -222.03973031928763, -0.01600000075995922, -0.01600000075995922, 0.0, 0.0, 0.0, 0.0, 0.0, 0.0, 1.687922860840297E9, 0.0, 2023-06-28 12:27:40.840
4.0, -168.90510169882327, -245.71516698878258, -45.656698659062386, -84.70686404639855, -0.01600000075995922, -0.01600000075995922, 0.0, 0.0, 0.0, 0.0, 0.0, 0.0, 1.687922860840297E9, 0.0, 2023-06-28 12:27:40.840
5.0, -72.38576364237815, -160.55016519781202, -34.10788759589195, -75.58524805447087, -0.01600000075995922, -0.01600000075995922, 0.0, 0.0, 0.0, 0.0, 0.0, 0.0, 1.6879228608409576E9, 0.0, 2023-06-28 12:27:40.840
5.0, -143.75801439676434, -235.3294648118317, -201.63670611102134, -210.2328661591746, -0.01600000075995922, -0.01600000075995922, 0.0, 0.0, 0.0, 0.0, 0.0, 0.0, 1.6879228608409576E9, 0.0, 2023-06-28 12:27:40.840
6.0, -180.48383196163923, -267.44772563129663, -91.27599831856787, -126.51894555101171, -0.01600000075995922, -0.01600000075995922, 0.0, 0.0, 0.0, 0.0, 0.0, 0.0, 1.6879228608516624E9, 0.0, 2023-06-28 12:27:40.851
6.0, -75.72175440285355, -172.66370115429163, 3.3509503602981567, -42.41981524741277, -0.01600000075995922, -0.01600000075995922, 0.0, 0.0, 0.0, 0.0, 0.0, 0.0, 1.6879228608516624E9, 0.0, 2023-06-28 12:27:40.851
7.0, -112.79912256356329, -215.9941820409149, -171.95312016271055, -181.4019774007611, -0.01600000075995922, -0.01600000075995922, 0.0, 0.0, 0.0, 0.0, 0.0, 0.0, 1.6879228608524513E9, 0.0, 2023-06-28 12:27:40.852
7.0, -218.55601351056248, -290.04420116357505, -156.2193610491231, -173.9932355885394, -0.01600000075995922, -0.01600000075995922, 0.0, 0.0, 0.0, 0.0, 0.0, 0.0, 1.6879228608524513E9, 0.0, 2023-06-28 12:27:40.852
8.0, -138.60817215777934, -210.52270840574056, -7.363863012753427, -59.552296944428235, -0.01600000075995922, -0.01600000075995922, 0.0, 0.0, 0.0, 0.0, 0.0, 0.0, 1.6879228608668015E9, 0.0, 2023-06-28 12:27:40.866
8.0, -57.287787521258, -142.34059231355786, -93.74433228932321, -120.8155981185846, -0.01600000075995922, -0.01600000075995922, 0.0, 0.0, 0.0, 0.0, 0.0, 0.0, 1.6879228608668015E9, 0.0, 2023-06-28 12:27:40.866
9.0, -156.97482084017247, -253.14260830078274, -184.8333356101066, -197.78647910663858, -0.01600000075995922, -0.01600000075995922, 0.0, 0.0, 0.0, 0.0, 0.0, 0.0, 1.687922860867417E9, 0.0, 2023-06-28 12:27:40.867
9.0, -154.2633933722973, -240.4867868507281, -37.13346666004509, -77.22332423506305, -0.01600000075995922, -0.01600000075995922, 0.0, 0.0, 0.0, 0.0, 0.0, 0.0, 1.687922860867417E9, 0.0, 2023-06-28 12:27:40.867
10.0, -97.17008064873517, -158.31370502430946, -34.773589788004756, -69.25359742948785, -0.01600000075995922, -0.01600000075995922, 0.5120000243186951, 0.0, 0.0, 0.0, 0.0, 0.0, 1.6879228608809893E9, 0.0, 2023-06-28 12:27:40.880
10.0, -152.89832988847047, -259.88564792089164, -210.85181960184127, -219.36196195101365, -0.01600000075995922, -0.01600000075995922, 0.5120000243186951, 0.0, 0.0, 0.0, 0.0, 0.0, 1.6879228608809893E9, 0.0, 2023-06-28 12:27:40.880
11.0, -163.47476696316153, -260.7084259111434, -97.61886864341795, -129.31639071786776, -0.01600000075995922, -0.03200000151991844, 0.5120000243186951, 0.0, 0.0, 0.0, 0.0, 0.0, 1.687922860896695E9, 0.0, 2023-06-28 12:27:40.896
11.0, -68.48130808863789, -156.28293934836984, 11.014005369506776, -33.72454785043374, -0.01600000075995922, -0.03200000151991844, 0.5120000243186951, 0.0, 0.0, 0.0, 0.0, 0.0, 1.687922860896695E9, 0.0, 2023-06-28 12:27:40.896
12.0, -113.11701405979693, -230.2544205719605, -171.01814517378807, -176.39051146013662, -0.01600000075995922, -0.03200000151991844, 0.5120000243186951, 0.0, 0.0, 0.0, 0.0, 0.0, 1.6879228608973966E9, 0.0, 2023-06-28 12:27:40.897
12.0, -267.6010615294799, -322.6636085771024, -179.39552107453346, -191.53710628068075, -0.01600000075995922, -0.03200000151991844, 0.5120000243186951, 0.0, 0.0, 0.0, 0.0, 0.0, 1.6879228608973966E9, 0.0, 2023-06-28 12:27:40.897
13.0, -114.90094633866102, -220.998168181628, -10.299684477970004, -62.23754511261359, -0.01600000075995922, -0.03200000151991844, 0.5120000243186951, 0.0, 0.0, 0.0, 0.0, 0.0, 1.687922860911102E9, 0.0, 2023-06-28 12:27:40.911
13.0, -68.00260089430958, -168.84900319948792, -94.24547888338566, -120.03395902784541, -0.01600000075995922, -0.03200000151991844, 0.5120000243186951, 0.0, 0.0, 0.0, 0.0, 0.0, 1.687922860911102E9, 0.0, 2023-06-28 12:27:40.911
14.0, -195.6117272824049, -295.5904727978632, -210.49652910605073, -218.92065375624225, -0.01600000075995922, -0.03200000151991844, 0.5120000243186951, 0.0, 0.0, 0.0, 0.0, 0.0, 1.6879228609266512E9, 0.0, 2023-06-28 12:27:40.926
14.0, -247.16998807154596, -288.20043048541993, -66.01297411788255, -94.83825302636251, -0.01600000075995922, -0.03200000151991844, 0.5120000243186951, 0.0, 0.0, 0.0, 0.0, 0.0, 1.6879228609266512E9, 0.0, 2023-06-28 12:27:40.926
15.0, -132.89360502548516, -243.2281335182488, -63.1781299514696, -88.55896100075915, -0.01600000075995922, -0.03200000151991844, 0.5120000243186951, 0.0, 0.0, 0.0, 0.0, 0.0, 1.6879228609274814E9, 0.0, 2023-06-28 12:27:40.927
15.0, -172.11019596084952, -254.44783338531852, -220.5082412874326, -231.9392455019988, -0.01600000075995922, -0.03200000151991844, 0.5120000243186951, 0.0, 0.0, 0.0, 0.0, 0.0, 1.6879228609274814E9, 0.0, 2023-06-28 12:27:40.927
16.0, -192.75070381630212, -276.4982835240662, -103.901900568977, -133.5985761671327, -0.01600000075995922, -0.03200000151991844, 0.5120000243186951, 0.0, 0.0, 0.0, 0.0, 0.0, 1.687922860941151E9, 0.0, 2023-06-28 12:27:40.941
16.0, -148.04393974598497, -218.5896726101637, -14.832443224266171, -53.923747511114925, -0.01600000075995922, -0.03200000151991844, 0.5120000243186951, 0.0, 0.0, 0.0, 0.0, 0.0, 1.687922860941151E9, 0.0, 2023-06-28 12:27:40.941
17.0, -150.1794226206839, -253.44554019719362, -186.25075769331306, -193.35095775919035, -0.01600000075995922, -0.03200000151991844, 0.5120000243186951, 0.0, 0.0, 0.0, 0.0, 0.0, 1.687922860956641E9, 0.0, 2023-06-28 12:27:40.956
17.0, -216.40557103604078, -308.8222388410941, -175.46488622110337, -197.78647910663858, -0.01600000075995922, -0.03200000151991844, 0.5120000243186951, 0.0, 0.0, 0.0, 0.0, 0.0, 1.687922860956641E9, 0.0, 2023-06-28 12:27:40.956
18.0, -178.4904652852565, -255.4576063733548, -23.105101926252246, -62.89576750481501, -0.01600000075995922, -0.03200000151991844, 0.5120000243186951, 0.0, 0.0, 0.0, 0.0, 0.0, 1.687922860957449E9, 0.0, 2023-06-28 12:27:40.957
18.0, -166.5265253270045, -229.38676378224045, -128.5441013770178, -149.0481028840877, -0.01600000075995922, -0.03200000151991844, 0.5120000243186951, 0.0, 0.0, 0.0, 0.0, 0.0, 1.687922860957449E9, 0.0, 2023-06-28 12:27:40.957
19.0, -235.42296231072396, -315.61763706058264, -228.62008429132402, -235.5407691593282, -0.01600000075995922, -0.03200000151991844, 0.5120000243186951, 0.0, 0.0, 0.0, 0.0, 0.0, 1.6879228609710174E9, 0.0, 2023-06-28 12:27:40.971
19.0, -230.31425897125155, -285.4329045182094, -65.35101182572544, -103.33530572568998, -0.01600000075995922, -0.03200000151991844, 0.5120000243186951, 0.0, 0.0, 0.0, 0.0, 0.0, 1.6879228609710174E9, 0.0, 2023-06-28 12:27:40.971
20.0, -154.8842167649418, -217.97258911747485, -60.35824538487941, -92.48585595423356, -0.01600000075995922, -0.03200000151991844, 0.7520000357180834, 0.0, 0.0, 0.0, 0.0, 0.0, 1.6879228609866784E9, 0.0, 2023-06-28 12:27:40.986
20.0, -200.74287002161145, -324.43632115609944, -238.47846057452261, -245.29068834381178, -0.01600000075995922, -0.03200000151991844, 0.7520000357180834, 0.0, 0.0, 0.0, 0.0, 0.0, 1.6879228609866784E9, 0.0, 2023-06-28 12:27:40.986
21.0, -240.7859788471833, -317.5175062380731, -129.0564676709473, -156.00431680167094, -0.01600000075995922, -0.03200000151991844, 0.7520000357180834, 0.0, 0.0, 0.0, 0.0, 0.0, 1.687922860987437E9, 0.0, 2023-06-28 12:27:40.987
21.0, -161.61603668518364, -221.54045367520303, -22.050450138747692, -62.44323961017653, -0.01600000075995922, -0.03200000151991844, 0.7520000357180834, 0.0, 0.0, 0.0, 0.0, 0.0, 1.687922860987437E9, 0.0, 2023-06-28 12:27:40.987
22.0, -197.26476306281984, -264.10425507090986, -197.0964675648138, -204.1143898316659, -0.01600000075995922, -0.03200000151991844, 0.7520000357180834, 0.0, 0.0, 0.0, 0.0, 0.0, 1.6879228610009604E9, 0.0, 2023-06-28 12:27:41.000
22.0, -285.03647512290627, -358.0281025581062, -204.08260068204254, -216.6393147832714, -0.01600000075995922, -0.03200000151991844, 0.7520000357180834, 0.0, 0.0, 0.0, 0.0, 0.0, 1.6879228610009604E9, 0.0, 2023-06-28 12:27:41.000
23.0, -210.26839520875365, -250.8650092277676, -35.83572137542069, -80.0207694019191, -0.01600000075995922, -0.03200000151991844, 0.7520000357180834, 0.0, 0.0, 0.0, 0.0, 0.0, 1.6879228610167153E9, 0.0, 2023-06-28 12:27:41.016
23.0, -164.77251224778593, -223.2907268544659, -126.71529029868543, -143.54671004926786, -0.01600000075995922, -0.03200000151991844, 0.7520000357180834, 0.0, 0.0, 0.0, 0.0, 0.0, 1.6879228610167153E9, 0.0, 2023-06-28 12:27:41.016
24.0, -299.2929737539962, -352.2761364262551, -254.94524007942528, -254.40482453582808, -0.01600000075995922, -0.03200000151991844, 0.7520000357180834, 0.0, 0.0, 0.0, 0.0, 0.0, 1.687922861017419E9, 0.0, 2023-06-28 12:27:41.017
24.0, -252.753658705391, -335.7831776216626, -90.08671013265848, -123.1492956909351, -0.01600000075995922, -0.03200000151991844, 0.7520000357180834, 0.0, 0.0, 0.0, 0.0, 0.0, 1.687922861017419E9, 0.0, 2023-06-28 12:27:41.017
25.0, -136.5100882826373, -201.15799891669303, -59.763601291924715, -101.76454774430022, -0.01600000075995922, -0.03200000151991844, 0.7520000357180834, 0.0, 0.0, 0.0, 0.0, 0.0, 1.6879228610311613E9, 0.0, 2023-06-28 12:27:41.031
25.0, -218.2156826145947, -291.8842319417745, -234.56652522087097, -232.21225819876418, -0.01600000075995922, -0.03200000151991844, 0.7520000357180834, 0.0, 0.0, 0.0, 0.0, 0.0, 1.6879228610311613E9, 0.0, 2023-06-28 12:27:41.031
26.0, -285.34314691927284, -328.0079256137833, -138.73906865622848, -168.18517095735297, -0.01600000075995922, -0.03200000151991844, 0.7520000357180834, 0.0, 0.0, 0.0, 0.0, 0.0, 1.6879228610468428E9, 0.0, 2023-06-28 12:27:41.046
26.0, -192.73948411643505, -229.30448598321527, -32.29403611738235, -68.51683713821694, -0.01600000075995922, -0.03200000151991844, 0.7520000357180834, 0.0, 0.0, 0.0, 0.0, 0.0, 1.6879228610468428E9, 0.0, 2023-06-28 12:27:41.046
27.0, -195.2788761863485, -269.8786606024951, -200.0173294302076, -201.24962646560743, -0.01600000075995922, -0.03200000151991844, 0.7520000357180834, 0.0, 0.0, 0.0, 0.0, 0.0, 1.6879228610474763E9, 0.0, 2023-06-28 12:27:41.047
27.0, -280.5859941756353, -343.00118453614414, -200.4249785253778, -214.3392763105221, -0.01600000075995922, -0.03200000151991844, 0.7520000357180834, 0.0, 0.0, 0.0, 0.0, 0.0, 1.6879228610474763E9, 0.0, 2023-06-28 12:27:41.047
28.0, -223.54504005145282, -291.9814693406224, -45.686617858707905, -87.47439001360908, -0.01600000075995922, -0.03200000151991844, 0.7520000357180834, 0.0, 0.0, 0.0, 0.0, 0.0, 1.6879228610610523E9, 0.0, 2023-06-28 12:27:41.061
28.0, -153.06288548652083, -219.15439750347286, -119.5384222837165, -143.28491705236956, -0.01600000075995922, -0.03200000151991844, 0.7520000357180834, 0.0, 0.0, 0.0, 0.0, 0.0, 1.6879228610610523E9, 0.0, 2023-06-28 12:27:41.061
29.0, -266.5426698420197, -315.1875485656783, -240.5615848498419, -244.58758715214208, -0.01600000075995922, -0.03200000151991844, 0.7520000357180834, 0.0, 0.0, 0.0, 0.0, 0.0, 1.687922861076979E9, 0.0, 2023-06-28 12:27:41.076
29.0, -252.488125808537, -308.38467054627836, -83.82611760683358, -117.48708715802059, -0.01600000075995922, -0.03200000151991844, 0.7520000357180834, 0.0, 0.0, 0.0, 0.0, 0.0, 1.687922861076979E9, 0.0, 2023-06-28 12:27:41.076
30.0, -187.40264687966555, -238.36252367589623, -67.06014610547572, -96.55486710602418, -0.01600000075995922, -0.03200000151991844, 0.8640000410377979, 0.0, 0.0, 0.0, 0.0, 0.0, 1.6879228610775123E9, 0.0, 2023-06-28 12:27:41.077
30.0, -236.50753329787403, -294.169310814701, -245.93956098612398, -251.42038437118754, -0.01600000075995922, -0.03200000151991844, 0.8640000410377979, 0.0, 0.0, 0.0, 0.0, 0.0, 1.6879228610775123E9, 0.0, 2023-06-28 12:27:41.077
31.0, -250.99964562617242, -338.74143848661333, -136.24081548582762, -163.91794510791078, -0.01600000075995922, -0.03200000151991844, 0.8640000410377979, 0.0, 0.0, 0.0, 0.0, 0.0, 1.6879228610910087E9, 0.0, 2023-06-28 12:27:41.091
31.0, -171.17148107197136, -235.01157331559807, -24.10365521442145, -67.7164985476993, -0.01600000075995922, -0.03200000151991844, 0.8640000410377979, 0.0, 0.0, 0.0, 0.0, 0.0, 1.6879228610910087E9, 0.0, 2023-06-28 12:27:41.091
32.0, -218.55975341051817, -293.1819772263989, -208.36478613130748, -208.80048447614536, -0.01600000075995922, -0.03200000151991844, 0.8640000410377979, 0.0, 0.0, 0.0, 0.0, 0.0, 1.687922861106774E9, 0.0, 2023-06-28 12:27:41.106
32.0, -285.5151823172346, -353.66363930981606, -206.19938405696303, -225.67491307621822, -0.01600000075995922, -0.03200000151991844, 0.8640000410377979, 0.0, 0.0, 0.0, 0.0, 0.0, 1.687922861106774E9, 0.0, 2023-06-28 12:27:41.106
33.0, -215.12278535123914, -284.6437856275588, -41.72980370558798, -86.6890110229142, -0.01600000075995922, -0.03200000151991844, 0.8640000410377979, 0.0, 0.0, 0.0, 0.0, 0.0, 1.6879228611074448E9, 0.0, 2023-06-28 12:27:41.107
33.0, -152.0344129987061, -213.03966107591987, -120.51079627219588, -143.11662155436352, -0.01600000075995922, -0.03200000151991844, 0.8640000410377979, 0.0, 0.0, 0.0, 0.0, 0.0, 1.6879228611074448E9, 0.0, 2023-06-28 12:27:41.107
34.0, -280.25688297953457, -321.57155779004097, -247.75341246463358, -250.78460137872025, -0.01600000075995922, -0.03200000151991844, 0.8640000410377979, 0.0, 0.0, 0.0, 0.0, 0.0, 1.6879228611210148E9, 0.0, 2023-06-28 12:27:41.121
34.0, -249.98987263813615, -309.5851784320548, -81.2605462372303, -115.57225838070735, -0.01600000075995922, -0.03200000151991844, 0.8640000410377979, 0.0, 0.0, 0.0, 0.0, 0.0, 1.6879228611210148E9, 0.0, 2023-06-28 12:27:41.121
35.0, -147.49043455254287, -236.6309499964118, -60.578899482265115, -98.37993828440085, -0.01600000075995922, -0.03200000151991844, 0.8640000410377979, 0.0, 0.0, 0.0, 0.0, 0.0, 1.6879228611367743E9, 0.0, 2023-06-28 12:27:41.136
35.0, -248.35927625745535, -307.9583219513297, -245.90216198656708, -243.34594036685303, -0.01600000075995922, -0.03200000151991844, 0.8640000410377979, 0.0, 0.0, 0.0, 0.0, 0.0, 1.6879228611367743E9, 0.0, 2023-06-28 12:27:41.136
36.0, -278.3158749025315, -336.32546311523765, -149.02379353437573, -172.12702551065013, -0.01600000075995922, -0.03200000151991844, 0.8640000410377979, 0.0, 0.0, 0.0, 0.0, 0.0, 1.687922861137464E9, 0.0, 2023-06-28 12:27:41.137
36.0, -187.35776808019727, -246.1938741831109, -31.078568631783128, -72.7204846884124, -0.01600000075995922, -0.03200000151991844, 0.8640000410377979, 0.0, 0.0, 0.0, 0.0, 0.0, 1.687922861137464E9, 0.0, 2023-06-28 12:27:41.137
37.0, -188.58071536570787, -253.25480529945344, -199.41520553734154, -210.66669455403462, -0.01600000075995922, -0.03200000151991844, 0.8640000410377979, 0.0, 0.0, 0.0, 0.0, 0.0, 1.6879228611510146E9, 0.0, 2023-06-28 12:27:41.151
37.0, -262.47365869022906, -337.1557209054008, -198.577467947267, -213.92788731539622, -0.01600000075995922, -0.03200000151991844, 0.8640000410377979, 0.0, 0.0, 0.0, 0.0, 0.0, 1.6879228611510146E9, 0.0, 2023-06-28 12:27:41.151
38.0, -189.4259327556938, -282.313827955164, -32.67924581281841, -73.48342427937314, -0.01600000075995922, -0.03200000151991844, 0.8640000410377979, 0.0, 0.0, 0.0, 0.0, 0.0, 1.6879228611668427E9, 0.0, 2023-06-28 12:27:41.166
38.0, -157.95467462856323, -248.68838745355606, -129.86802596133202, -142.14424756588414, -0.01600000075995922, -0.03200000151991844, 0.8640000410377979, 0.0, 0.0, 0.0, 0.0, 0.0, 1.6879228611668427E9, 0.0, 2023-06-28 12:27:41.166
39.0, -275.85128083173186, -335.54382402449846, -245.6366290897131, -248.04699461115524, -0.01600000075995922, -0.03200000151991844, 0.8640000410377979, 0.0, 0.0, 0.0, 0.0, 0.0, 1.6879228611675403E9, 0.0, 2023-06-28 12:27:41.167
39.0, -268.11342782340944, -304.891603987664, -87.23690636642277, -122.99595979275182, -0.01600000075995922, -0.03200000151991844, 0.8640000410377979, 0.0, 0.0, 0.0, 0.0, 0.0, 1.6879228611675403E9, 0.0, 2023-06-28 12:27:41.167
40.0, -168.54981120303273, -206.248002756387, -59.5466870944947, -84.01498255459592, -0.01600000075995922, -0.03200000151991844, 0.9280000440776348, 0.0, 0.0, 0.0, 0.0, 0.0, 1.6879228611809776E9, 0.0, 2023-06-28 12:27:41.180
40.0, -248.91278145089746, -323.43402796797454, -249.82905694004148, -249.92068448895589, -0.01600000075995922, -0.03200000151991844, 0.9280000440776348, 0.0, 0.0, 0.0, 0.0, 0.0, 1.6879228611809776E9, 0.0, 2023-06-28 12:27:41.180
41.0, -266.5277102421969, -344.54950311779976, -150.47113481722772, -176.29701396124437, -0.01600000075995922, -0.03200000151991844, 0.9280000440776348, 0.0, 0.0, 0.0, 0.0, 0.0, 1.6879228611967971E9, 0.0, 2023-06-28 12:27:41.196
41.0, -160.0377989038825, -234.7049015192315, -25.577175796963274, -70.47654471499845, -0.01600000075995922, -0.03200000151991844, 0.9280000440776348, 0.0, 0.0, 0.0, 0.0, 0.0, 1.6879228611967971E9, 0.0, 2023-06-28 12:27:41.196
42.0, -206.2816618559882, -269.4261327078566, -198.22591735143214, -194.58138484461233, -0.01600000075995922, -0.03200000151991844, 0.9280000440776348, 0.0, 0.0, 0.0, 0.0, 0.0, 1.687922861197446E9, 0.0, 2023-06-28 12:27:41.197
42.0, -294.26654821354896, -342.02881054766476, -206.81646754965186, -226.74826436350122, -0.01600000075995922, -0.03200000151991844, 0.9280000440776348, 0.0, 0.0, 0.0, 0.0, 0.0, 1.687922861197446E9, 0.0, 2023-06-28 12:27:41.197
43.0, -192.85916091501713, -259.0404305309057, -34.433258892036974, -81.11656008893624, -0.01600000075995922, -0.03200000151991844, 0.9280000440776348, 0.0, 0.0, 0.0, 0.0, 0.0, 1.6879228612109964E9, 0.0, 2023-06-28 12:27:41.210
43.0, -137.76295476779342, -210.6236857045442, -112.69440536480397, -133.10864927293733, -0.01600000075995922, -0.03200000151991844, 0.9280000440776348, 0.0, 0.0, 0.0, 0.0, 0.0, 1.6879228612109964E9, 0.0, 2023-06-28 12:27:41.210
44.0, -277.6800919100642, -339.06680978275836, -244.55205810256302, -244.79328164970502, -0.01600000075995922, -0.03200000151991844, 0.9280000440776348, 0.0, 0.0, 0.0, 0.0, 0.0, 1.687922861226766E9, 0.0, 2023-06-28 12:27:41.226
44.0, -262.944886084646, -329.8292568922043, -92.28577130660415, -125.43437456386164, -0.01600000075995922, -0.03200000151991844, 0.9280000440776348, 0.0, 0.0, 0.0, 0.0, 0.0, 1.687922861226766E9, 0.0, 2023-06-28 12:27:41.226
45.0, -180.61846836004406, -225.68800272606313, -62.983655153773725, -99.33735267305747, -0.01600000075995922, -0.03200000151991844, 0.9280000440776348, 0.0, 0.0, 0.0, 0.0, 0.0, 1.6879228612274134E9, 0.0, 2023-06-28 12:27:41.227
45.0, -224.91384343523532, -312.4873407976702, -240.92061524558812, -245.29442824376747, -0.01600000075995922, -0.03200000151991844, 0.9280000440776348, 0.0, 0.0, 0.0, 0.0, 0.0, 1.6879228612274134E9, 0.0, 2023-06-28 12:27:41.227
46.0, -276.6590992221609, -329.6422618944198, -140.91195053048432, -172.53467460582033, -0.01600000075995922, -0.03200000151991844, 0.9280000440776348, 0.0, 0.0, 0.0, 0.0, 0.0, 1.6879228612409563E9, 0.0, 2023-06-28 12:27:41.240
46.0, -196.60654067061841, -247.49535936769098, -30.281969941221178, -67.40234695142135, -0.01600000075995922, -0.03200000151991844, 0.9280000440776348, 0.0, 0.0, 0.0, 0.0, 0.0, 1.6879228612409563E9, 0.0, 2023-06-28 12:27:41.240
47.0, -187.8701343741268, -242.21462063025683, -196.41206587292254, -206.21621360676363, -0.01600000075995922, -0.03200000151991844, 0.9280000440776348, 0.0, 0.0, 0.0, 0.0, 0.0, 1.687922861256811E9, 0.0, 2023-06-28 12:27:41.256
47.0, -252.14405501261353, -327.21506682317704, -194.65431289374828, -213.40804122155532, -0.01600000075995922, -0.03200000151991844, 0.9280000440776348, 0.0, 0.0, 0.0, 0.0, 0.0, 1.687922861256811E9, 0.0, 2023-06-28 12:27:41.256
48.0, -207.04086154699326, -262.92244668491185, -35.652466277591884, -78.59586751880124, -0.01600000075995922, -0.03200000151991844, 0.9280000440776348, 0.0, 0.0, 0.0, 0.0, 0.0, 1.68792286125756E9, 0.0, 2023-06-28 12:27:41.257
48.0, -174.3017773348838, -228.78837978933007, -115.51802983134985, -140.3416157872416, -0.01600000075995922, -0.03200000151991844, 0.9280000440776348, 0.0, 0.0, 0.0, 0.0, 0.0, 1.68792286125756E9, 0.0, 2023-06-28 12:27:41.257
49.0, -264.392227367498, -325.1992607470602, -243.39642901625484, -249.93938398873433, -0.01600000075995922, -0.03200000151991844, 0.9280000440776348, 0.0, 0.0, 0.0, 0.0, 0.0, 1.6879228612710404E9, 0.0, 2023-06-28 12:27:41.271
49.0, -234.8133586179465, -313.17174248956144, -84.86206989455968, -121.25690631335601, -0.01600000075995922, -0.03200000151991844, 0.9280000440776348, 0.0, 0.0, 0.0, 0.0, 0.0, 1.6879228612710404E9, 0.0, 2023-06-28 12:27:41.271
50.0, -173.527618044056, -212.26924168504775, -59.804740191437304, -95.90412451373413, -0.01600000075995922, -0.03200000151991844, 0.9600000455975533, 0.0, 0.0, 0.0, 0.0, 0.0, 1.687922861286805E9, 0.0, 2023-06-28 12:27:41.286
50.0, -239.47327396273613, -301.5967521267012, -240.84581724647433, -239.16099231643602, -0.01600000075995922, -0.03200000151991844, 0.9600000455975533, 0.0, 0.0, 0.0, 0.0, 0.0, 1.687922861286805E9, 0.0, 2023-06-28 12:27:41.286
51.0, -262.80276988632977, -318.0485720317811, -141.35325872525573, -167.7326430627145, -0.01600000075995922, -0.03200000151991844, 0.9600000455975533, 0.0, 0.0, 0.0, 0.0, 0.0, 1.6879228612874703E9, 0.0, 2023-06-28 12:27:41.287
51.0, -177.3834548983723, -242.28193882945925, -25.053589803166687, -69.58644852554426, -0.01600000075995922, -0.03200000151991844, 0.9600000455975533, 0.0, 0.0, 0.0, 0.0, 0.0, 1.6879228612874703E9, 0.0, 2023-06-28 12:27:41.287
52.0, -192.06256222445518, -239.69392806012183, -187.903793473728, -196.8477642177604, -0.01600000075995922, -0.03200000151991844, 0.9600000455975533, 0.0, 0.0, 0.0, 0.0, 0.0, 1.68792286130109E9, 0.0, 2023-06-28 12:27:41.301
52.0, -274.63207344617695, -334.8594223326072, -199.40772573743016, -217.8211231692694, -0.01600000075995922, -0.03200000151991844, 0.9600000455975533, 0.0, 0.0, 0.0, 0.0, 0.0, 1.68792286130109E9, 0.0, 2023-06-28 12:27:41.301
53.0, -222.53152716346085, -273.37172716110945, -44.100900277495384, -83.90652545588091, -0.01600000075995922, -0.03200000151991844, 0.9600000455975533, 0.0, 0.0, 0.0, 0.0, 0.0, 1.687922861316812E9, 0.0, 2023-06-28 12:27:41.316
53.0, -173.89038833975792, -229.91408967599273, -119.60948038287461, -142.74263155879453, -0.01600000075995922, -0.03200000151991844, 0.9600000455975533, 0.0, 0.0, 0.0, 0.0, 0.0, 1.687922861316812E9, 0.0, 2023-06-28 12:27:41.316
54.0, -263.5245705777779, -321.7922118874267, -239.68644826021045, -246.71185032697394, -0.01600000075995922, -0.03200000151991844, 0.9600000455975533, 0.0, 0.0, 0.0, 0.0, 0.0, 1.6879228613174555E9, 0.0, 2023-06-28 12:27:41.317
54.0, -243.153335519135, -289.4009383711964, -83.99441310483962, -112.27740651974455, -0.01600000075995922, -0.03200000151991844, 0.9600000455975533, 0.0, 0.0, 0.0, 0.0, 0.0, 1.6879228613174555E9, 0.0, 2023-06-28 12:27:41.317
55.0, -146.57041916344315, -219.71538249682635, -48.77577522210777, -88.33456700341776, -0.01600000075995922, -0.03200000151991844, 0.9600000455975533, 0.0, 0.0, 0.0, 0.0, 0.0, 1.6879228613310573E9, 0.0, 2023-06-28 12:27:41.331
55.0, -223.4403228526935, -301.6304112263024, -232.3001458477229, -233.37536708498374, -0.01600000075995922, -0.03200000151991844, 0.9600000455975533, 0.0, 0.0, 0.0, 0.0, 0.0, 1.6879228613310573E9, 0.0, 2023-06-28 12:27:41.331
56.0, -274.3852400491014, -312.5920579964295, -146.2525276672095, -169.583893540781, -0.01600000075995922, -0.03200000151991844, 0.9600000455975533, 0.0, 0.0, 0.0, 0.0, 0.0, 1.687922861346914E9, 0.0, 2023-06-28 12:27:41.346
56.0, -201.40857221372426, -251.1941204238683, -34.13780679553747, -75.12524035992101, -0.01600000075995922, -0.03200000151991844, 0.9600000455975533, 0.0, 0.0, 0.0, 0.0, 0.0, 1.687922861346914E9, 0.0, 2023-06-28 12:27:41.346
57.0, -240.7111808480695, -276.7338972212747, -204.40049217827618, -206.23491310654208, -0.01600000075995922, -0.03200000151991844, 0.9600000455975533, 0.0, 0.0, 0.0, 0.0, 0.0, 1.6879228613474057E9, 0.0, 2023-06-28 12:27:41.347
57.0, -256.8189299572259, -325.3712961450219, -205.7992147617042, -225.52531707799062, -0.01600000075995922, -0.03200000151991844, 0.9600000455975533, 0.0, 0.0, 0.0, 0.0, 0.0, 1.6879228613474057E9, 0.0, 2023-06-28 12:27:41.347
58.0, -177.18524020072073, -250.16564793605357, -28.075428967364132, -74.29498256975785, -0.01600000075995922, -0.03200000151991844, 0.9600000455975533, 0.0, 0.0, 0.0, 0.0, 0.0, 1.6879228613610747E9, 0.0, 2023-06-28 12:27:41.361
58.0, -142.8828778071329, -219.34887230116874, -106.33283554017544, -127.12106944387779, -0.01600000075995922, -0.03200000151991844, 0.9600000455975533, 0.0, 0.0, 0.0, 0.0, 0.0, 1.6879228613610747E9, 0.0, 2023-06-28 12:27:41.361
59.0, -280.92632507160306, -327.72743311710656, -242.21462063025683, -249.49433589400724, -0.01600000075995922, -0.03200000151991844, 0.9600000455975533, 0.0, 0.0, 0.0, 0.0, 0.0, 1.6879228613767812E9, 0.0, 2023-06-28 12:27:41.376
59.0, -263.8649014737457, -300.27282754238695, -85.43801448773593, -123.88605598220602, -0.01600000075995922, -0.03200000151991844, 0.9600000455975533, 0.0, 0.0, 0.0, 0.0, 0.0, 1.6879228613767812E9, 0.0, 2023-06-28 12:27:41.376
60.0, -162.4425545753911, -221.67509007360786, -54.37814535573125, -86.66283172322437, -0.01600000075995922, -0.03200000151991844, 0.9760000463575125, 0.0, 0.0, 0.0, 0.0, 0.0, 1.6879228613774357E9, 0.0, 2023-06-28 12:27:41.377
60.0, -237.71926088351756, -323.9763134615496, -241.3020850410685, -238.1736587281339, -0.01600000075995922, -0.03200000151991844, 0.9760000463575125, 0.0, 0.0, 0.0, 0.0, 0.0, 1.6879228613774357E9, 0.0, 2023-06-28 12:27:41.377
61.0, -277.9867637064308, -335.02397793065757, -153.02174658700824, -178.57835293421522, -0.01600000075995922, -0.03200000151991844, 0.9760000463575125, 0.0, 0.0, 0.0, 0.0, 0.0, 1.68792286139103E9, 0.0, 2023-06-28 12:27:41.391
61.0, -188.93226596154273, -225.59824512712657, -29.620007649064064, -75.39077325677499, -0.01600000075995922, -0.03200000151991844, 0.9760000463575125, 0.0, 0.0, 0.0, 0.0, 0.0, 1.68792286139103E9, 0.0, 2023-06-28 12:27:41.391
62.0, -176.81499010510743, -238.81131167057902, -184.06291621923447, -191.365070882719, -0.01600000075995922, -0.03200000151991844, 0.9760000463575125, 0.0, 0.0, 0.0, 0.0, 0.0, 1.687922861407581E9, 0.0, 2023-06-28 12:27:41.407
62.0, -278.2074178038165, -334.8631622325629, -204.88293927256018, -220.88036133302376, -0.01600000075995922, -0.03200000151991844, 0.9760000463575125, 0.0, 0.0, 0.0, 0.0, 0.0, 1.687922861407581E9, 0.0, 2023-06-28 12:27:41.407
63.0, -219.71912239678204, -278.41311230137944, -42.72087719384581, -90.4326508785598, -0.01600000075995922, -0.03200000151991844, 0.9760000463575125, 0.0, 0.0, 0.0, 0.0, 0.0, 1.687922861408183E9, 0.0, 2023-06-28 12:27:41.408
63.0, -168.12346260808408, -219.42741020023823, -115.47689093183726, -137.1552210249938, -0.01600000075995922, -0.03200000151991844, 0.9760000463575125, 0.0, 0.0, 0.0, 0.0, 0.0, 1.687922861408183E9, 0.0, 2023-06-28 12:27:41.408
64.0, -285.1337125217542, -337.99719839543104, -247.31210426986217, -244.58758715214208, -0.01600000075995922, -0.03200000151991844, 0.9760000463575125, 0.0, 0.0, 0.0, 0.0, 0.0, 1.6879228614210927E9, 0.0, 2023-06-28 12:27:41.421
64.0, -262.09966869466007, -313.7327274829149, -93.59099639113992, -123.72150038415566, -0.01600000075995922, -0.03200000151991844, 0.9760000463575125, 0.0, 0.0, 0.0, 0.0, 0.0, 1.6879228614210927E9, 0.0, 2023-06-28 12:27:41.421
65.0, -149.04623293410987, -228.46674839314073, -57.14193142298609, -94.01547503611073, -0.01600000075995922, -0.03200000151991844, 0.9760000463575125, 0.0, 0.0, 0.0, 0.0, 0.0, 1.6879228614371378E9, 0.0, 2023-06-28 12:27:41.437
65.0, -245.55061139073223, -293.38019192405045, -240.5541050499305, -243.89570566033944, -0.01600000075995922, -0.03200000151991844, 0.9760000463575125, 0.0, 0.0, 0.0, 0.0, 0.0, 1.6879228614371378E9, 0.0, 2023-06-28 12:27:41.437
66.0, -239.68270836025476, -292.9164443295449, -136.5811463817954, -166.05342798260972, -0.01600000075995922, -0.03200000151991844, 0.9760000463575125, 0.0, 0.0, 0.0, 0.0, 0.0, 1.6879228614375136E9, 0.0, 2023-06-28 12:27:41.437
66.0, -150.4748747171834, -193.6146207060665, -7.66305500920862, -54.11448240885511, -0.01600000075995922, -0.03200000151991844, 0.9760000463575125, 0.0, 0.0, 0.0, 0.0, 0.0, 1.6879228614375136E9, 0.0, 2023-06-28 12:27:41.437
67.0, -174.8216234287247, -237.35649058781564, -175.30033062305301, -186.61539793899283, -0.01600000075995922, -0.03200000151991844, 0.9760000463575125, 0.0, 0.0, 0.0, 0.0, 0.0, 1.6879228614509575E9, 0.0, 2023-06-28 12:27:41.450
67.0, -263.63302767649293, -298.87036505900323, -193.48746410757303, -206.98663299763575, -0.01600000075995922, -0.03200000151991844, 0.9760000463575125, 0.0, 0.0, 0.0, 0.0, 0.0, 1.6879228614509575E9, 0.0, 2023-06-28 12:27:41.450
68.0, -191.34450143296272, -257.88854134455323, -34.11162749584764, -74.25384367024526, -0.01600000075995922, -0.03200000151991844, 0.9760000463575125, 0.0, 0.0, 0.0, 0.0, 0.0, 1.6879228614667509E9, 0.0, 2023-06-28 12:27:41.466
68.0, -122.75099634565413, -165.7112271366641, -92.09503640886396, -115.80413217796013, -0.01600000075995922, -0.03200000151991844, 0.9760000463575125, 0.0, 0.0, 0.0, 0.0, 0.0, 1.6879228614667509E9, 0.0, 2023-06-28 12:27:41.466
69.0, -238.65423587244004, -295.8896647943184, -229.67099617887288, -234.54969567107037, -0.01600000075995922, -0.03200000151991844, 0.9760000463575125, 0.0, 0.0, 0.0, 0.0, 0.0, 1.6879228614675643E9, 0.0, 2023-06-28 12:27:41.467
69.0, -218.23438211437315, -269.17929931078106, -74.97377441171557, -110.01476704655215, -0.01600000075995922, -0.03200000151991844, 0.9760000463575125, 0.0, 0.0, 0.0, 0.0, 0.0, 1.6879228614675643E9, 0.0, 2023-06-28 12:27:41.467
70.0, -117.32440150994807, -169.25291239470243, -29.904240045696497, -74.7587301642634, -0.01600000075995922, -0.03200000151991844, 0.9920000471174717, 0.0, 0.0, 0.0, 0.0, 0.0, 1.6879228614811676E9, 0.0, 2023-06-28 12:27:41.481
70.0, -176.80003050528467, -249.33165024593472, -212.24306238535792, -220.53629053710029, -0.01600000075995922, -0.03200000151991844, 0.9920000471174717, 0.0, 0.0, 0.0, 0.0, 0.0, 1.6879228614811676E9, 0.0, 2023-06-28 12:27:41.481
71.0, -241.53769873827696, -295.19404340256006, -132.71782972756773, -160.15560575248674, -0.01600000075995922, -0.03200000151991844, 0.9920000471174717, 0.0, 0.0, 0.0, 0.0, 0.0, 1.6879228614969108E9, 0.0, 2023-06-28 12:27:41.496
71.0, -163.05963806807995, -221.71996887307614, -13.942347034811974, -58.59114265581593, -0.01600000075995922, -0.03200000151991844, 0.9920000471174717, 0.0, 0.0, 0.0, 0.0, 0.0, 1.6879228614969108E9, 0.0, 2023-06-28 12:27:41.496
72.0, -176.1530278129503, -241.5937972376123, -177.8285029930994, -183.94510937063023, -0.01600000075995922, -0.03200000151991844, 0.9920000471174717, 0.0, 0.0, 0.0, 0.0, 0.0, 1.687922861497386E9, 0.0, 2023-06-28 12:27:41.497
72.0, -268.65945321694016, -339.39966087881476, -203.26356259174645, -222.7914502103813, -0.01600000075995922, -0.03200000151991844, 0.9920000471174717, 0.0, 0.0, 0.0, 0.0, 0.0, 1.687922861497386E9, 0.0, 2023-06-28 12:27:41.497
73.0, -213.6193455690518, -270.2863096976653, -40.25628312304616, -79.5009233080782, -0.01600000075995922, -0.03200000151991844, 0.9920000471174717, 0.0, 0.0, 0.0, 0.0, 0.0, 1.6879228615110164E9, 0.0, 2023-06-28 12:27:41.511
73.0, -152.53181969281286, -203.78340868558735, -102.79489018209279, -125.05290476838127, -0.01600000075995922, -0.03200000151991844, 0.9920000471174717, 0.0, 0.0, 0.0, 0.0, 0.0, 1.6879228615110164E9, 0.0, 2023-06-28 12:27:41.511
74.0, -249.95247363857925, -305.01128078624606, -234.76847981847823, -243.55537476437166, -0.01600000075995922, -0.03200000151991844, 0.9920000471174717, 0.0, 0.0, 0.0, 0.0, 0.0, 1.6879228615267544E9, 0.0, 2023-06-28 12:27:41.526
74.0, -235.61743710841984, -286.51747550535947, -78.261146472767, -114.45776819391176, -0.01600000075995922, -0.03200000151991844, 0.9920000471174717, 0.0, 0.0, 0.0, 0.0, 0.0, 1.6879228615267544E9, 0.0, 2023-06-28 12:27:41.526
75.0, -136.66716408077627, -193.70437830500305, -38.51348974369466, -78.04236232535914, -0.01600000075995922, -0.03200000151991844, 0.9920000471174717, 0.0, 0.0, 0.0, 0.0, 0.0, 1.687922861527274E9, 0.0, 2023-06-28 12:27:41.527
75.0, -208.18153103347868, -277.695051509887, -225.1045783329755, -230.70133861666545, -0.01600000075995922, -0.03200000151991844, 0.9920000471174717, 0.0, 0.0, 0.0, 0.0, 0.0, 1.687922861527274E9, 0.0, 2023-06-28 12:27:41.527
76.0, -265.5291569540277, -337.1669406052679, -142.44530951231718, -169.56519404100254, -0.01600000075995922, -0.03200000151991844, 0.9920000471174717, 0.0, 0.0, 0.0, 0.0, 0.0, 1.687922861541006E9, 0.0, 2023-06-28 12:27:41.541
76.0, -184.73609821125865, -244.42864140402526, -25.521077297627926, -66.37761436356232, -0.01600000075995922, -0.03200000151991844, 0.9920000471174717, 0.0, 0.0, 0.0, 0.0, 0.0, 1.687922861541006E9, 0.0, 2023-06-28 12:27:41.541
77.0, -182.21166574116796, -238.83375107031316, -181.72173884697258, -194.0353594510816, -0.01600000075995922, -0.03200000151991844, 0.9920000471174717, 0.0, 0.0, 0.0, 0.0, 0.0, 1.687922861557021E9, 0.0, 2023-06-28 12:27:41.557
77.0, -256.4150207620114, -329.3842087974772, -201.9882567068562, -223.59178880089894, -0.01600000075995922, -0.03200000151991844, 0.9920000471174717, 0.0, 0.0, 0.0, 0.0, 0.0, 1.687922861557021E9, 0.0, 2023-06-28 12:27:41.557
78.0, -210.30205430835485, -270.0469561005011, -43.278122287243605, -81.131519688759, -0.01600000075995922, -0.03200000151991844, 0.9920000471174717, 0.0, 0.0, 0.0, 0.0, 0.0, 1.6879228615575418E9, 0.0, 2023-06-28 12:27:41.557
78.0, -155.60975735634565, -204.9839165713638, -104.08141576685011, -129.24907251866534, -0.01600000075995922, -0.03200000151991844, 0.9920000471174717, 0.0, 0.0, 0.0, 0.0, 0.0, 1.6879228615575418E9, 0.0, 2023-06-28 12:27:41.557
79.0, -282.4634239533916, -322.05400488432497, -253.22488609980792, -259.326532877516, -0.01600000075995922, -0.03200000151991844, 0.9920000471174717, 0.0, 0.0, 0.0, 0.0, 0.0, 1.6879228615709822E9, 0.0, 2023-06-28 12:27:41.570
79.0, -241.58631743770093, -299.64826424978673, -88.98343964572996, -126.32073085336015, -0.01600000075995922, -0.03200000151991844, 0.9920000471174717, 0.0, 0.0, 0.0, 0.0, 0.0, 1.6879228615709822E9, 0.0, 2023-06-28 12:27:41.570
80.0, -150.23178122006357, -221.08792578056455, -48.68227772321552, -86.88348582061008, -0.01600000075995922, -0.03200000151991844, 0.9920000471174717, 0.0, 0.0, 0.0, 0.0, 0.0, 1.6879228615867064E9, 0.0, 2023-06-28 12:27:41.586
80.0, -219.6929430970922, -302.1165982205421, -232.71153484284878, -234.3514809734188, -0.01600000075995922, -0.03200000151991844, 0.9920000471174717, 0.0, 0.0, 0.0, 0.0, 0.0, 1.6879228615867064E9, 0.0, 2023-06-28 12:27:41.586
81.0, -262.0061711957678, -320.0120195085183, -151.72774120233953, -177.4339435477741, -0.01600000075995922, -0.04800000227987766, 0.9920000471174717, 0.0, 0.0, 0.0, 0.0, 0.0, 1.687922861587376E9, 0.0, 2023-06-28 12:27:41.587
81.0, -162.27051917742938, -222.52030746359378, -22.383301234804094, -64.07757589081302, -0.01600000075995922, -0.04800000227987766, 0.9920000471174717, 0.0, 0.0, 0.0, 0.0, 0.0, 1.687922861587376E9, 0.0, 2023-06-28 12:27:41.587
82.0, -168.76298550050706, -218.32039981335402, -173.0489108497277, -185.4784683524631, -0.01600000075995922, -0.04800000227987766, 0.9920000471174717, 0.0, 0.0, 0.0, 0.0, 0.0, 1.687922861600983E9, 0.0, 2023-06-28 12:27:41.600
82.0, -278.99653669446707, -333.20638655219227, -205.67205816321075, -222.98592500807717, -0.01600000075995922, -0.04800000227987766, 0.9920000471174717, 0.0, 0.0, 0.0, 0.0, 0.0, 1.687922861600983E9, 0.0, 2023-06-28 12:27:41.600
83.0, -206.45743715390563, -279.1049937931821, -44.81522116903216, -86.89470552047715, -0.01600000075995922, -0.04800000227987766, 0.9920000471174717, 0.0, 0.0, 0.0, 0.0, 0.0, 1.687922861616691E9, 0.0, 2023-06-28 12:27:41.616
83.0, -160.93911479320377, -215.68003044463694, -102.63781438395381, -127.58855693833902, -0.01600000075995922, -0.04800000227987766, 0.9920000471174717, 0.0, 0.0, 0.0, 0.0, 0.0, 1.687922861616691E9, 0.0, 2023-06-28 12:27:41.616
84.0, -250.50223893206567, -339.2089259810746, -249.72433974128217, -251.4353439710103, -0.01600000075995922, -0.04800000227987766, 0.9920000471174717, 0.0, 0.0, 0.0, 0.0, 0.0, 1.6879228616174166E9, 0.0, 2023-06-28 12:27:41.617
84.0, -228.30967259500176, -292.13106533885, -87.73057316057384, -131.9679797864519, -0.01600000075995922, -0.04800000227987766, 0.9920000471174717, 0.0, 0.0, 0.0, 0.0, 0.0, 1.6879228616174166E9, 0.0, 2023-06-28 12:27:41.617
85.0, -154.6261636679992, -198.9103190433234, -41.292235410772264, -77.78056932846084, -0.01600000075995922, -0.04800000227987766, 0.9920000471174717, 0.0, 0.0, 0.0, 0.0, 0.0, 1.6879228616312325E9, 0.0, 2023-06-28 12:27:41.631
85.0, -201.11686001718044, -274.43759864848107, -221.67509007360786, -229.65790652902797, -0.01600000075995922, -0.04800000227987766, 0.9920000471174717, 0.0, 0.0, 0.0, 0.0, 0.0, 1.6879228616312325E9, 0.0, 2023-06-28 12:27:41.631
86.0, -262.6830930877477, -323.16849507112056, -147.23238145560026, -175.92302396567538, -0.01600000075995922, -0.04800000227987766, 0.9920000471174717, 0.0, 0.0, 0.0, 0.0, 0.0, 1.687922861646877E9, 0.0, 2023-06-28 12:27:41.646
86.0, -183.20647912938148, -246.45940707996488, -27.74631777126342, -73.07951508415863, -0.01600000075995922, -0.04800000227987766, 0.9920000471174717, 0.0, 0.0, 0.0, 0.0, 0.0, 1.687922861646877E9, 0.0, 2023-06-28 12:27:41.646
87.0, -171.1602613721043, -249.17831434775144, -174.21949953585863, -179.3674718248658, -0.01600000075995922, -0.04800000227987766, 0.9920000471174717, 0.0, 0.0, 0.0, 0.0, 0.0, 1.6879228616473823E9, 0.0, 2023-06-28 12:27:41.647
87.0, -273.95889145415276, -328.01914531365037, -209.56903391703963, -225.4205998792313, -0.01600000075995922, -0.04800000227987766, 0.9920000471174717, 0.0, 0.0, 0.0, 0.0, 0.0, 1.6879228616473823E9, 0.0, 2023-06-28 12:27:41.647
88.0, -219.35261220112443, -275.2790761385113, -46.67395144701004, -86.25144272809848, -0.01600000075995922, -0.04800000227987766, 0.9920000471174717, 0.0, 0.0, 0.0, 0.0, 0.0, 1.6879228616610193E9, 0.0, 2023-06-28 12:27:41.661
88.0, -162.36027677636594, -210.29083460848778, -106.23185824137181, -127.83913023537025, -0.01600000075995922, -0.04800000227987766, 0.9920000471174717, 0.0, 0.0, 0.0, 0.0, 0.0, 1.6879228616610193E9, 0.0, 2023-06-28 12:27:41.661
89.0, -244.94474759791046, -317.7157209357247, -242.1847014306113, -244.34075375506654, -0.01600000075995922, -0.04800000227987766, 0.9920000471174717, 0.0, 0.0, 0.0, 0.0, 0.0, 1.687922861676659E9, 0.0, 2023-06-28 12:27:41.676
89.0, -238.49716007430106, -309.7347744302824, -92.09877630881965, -125.51291246293113, -0.01600000075995922, -0.04800000227987766, 0.9920000471174717, 0.0, 0.0, 0.0, 0.0, 0.0, 1.687922861676659E9, 0.0, 2023-06-28 12:27:41.676
90.0, -167.38296241685748, -213.3201535725966, -52.560553977265954, -86.9508040198125, -0.01600000075995922, -0.04800000227987766, 0.9920000471174717, 0.0, 0.0, 0.0, 0.0, 0.0, 1.687922861677458E9, 0.0, 2023-06-28 12:27:41.677
90.0, -205.37286616675556, -275.9559980304912, -229.17358948476613, -234.35896077333018, -0.01600000075995922, -0.04800000227987766, 0.9920000471174717, 0.0, 0.0, 0.0, 0.0, 0.0, 1.687922861677458E9, 0.0, 2023-06-28 12:27:41.677
91.0, -269.30271600931883, -329.4964057961479, -150.42999591771513, -181.97792199393734, -0.01600000075995922, -0.04800000227987766, 0.9920000471174717, 0.0, 0.0, 0.0, 0.0, 0.0, 1.6879228616909697E9, 0.0, 2023-06-28 12:27:41.690
91.0, -186.28441679291427, -264.5343435658142, -30.779376635327935, -74.31742196949199, -0.01600000075995922, -0.04800000227987766, 0.9920000471174717, 0.0, 0.0, 0.0, 0.0, 0.0, 1.6879228616909697E9, 0.0, 2023-06-28 12:27:41.690
92.0, -181.50482464954257, -222.22485536709428, -175.55090392008424, -190.83774498896673, -0.01600000075995922, -0.04800000227987766, 0.9920000471174717, 0.0, 0.0, 0.0, 0.0, 0.0, 1.6879228617066884E9, 0.0, 2023-06-28 12:27:41.706
92.0, -272.89675986673683, -324.4886797554791, -207.03338174708188, -221.4189069266431, -0.01600000075995922, -0.04800000227987766, 0.9920000471174717, 0.0, 0.0, 0.0, 0.0, 0.0, 1.6879228617066884E9, 0.0, 2023-06-28 12:27:41.706
93.0, -217.0712732281536, -265.8208691505715, -42.57128119561821, -85.98216993128881, -0.01600000075995922, -0.04800000227987766, 0.9920000471174717, 0.0, 0.0, 0.0, 0.0, 0.0, 1.6879228617073553E9, 0.0, 2023-06-28 12:27:41.707
93.0, -149.5922583276406, -209.52041521761566, -97.61886864341795, -122.62944959709421, -0.01600000075995922, -0.04800000227987766, 0.9920000471174717, 0.0, 0.0, 0.0, 0.0, 0.0, 1.6879228617073553E9, 0.0, 2023-06-28 12:27:41.707
94.0, -244.06961100827903, -332.6341818589717, -243.42634821590036, -251.67843746813014, -0.01600000075995922, -0.04800000227987766, 0.9920000471174717, 0.0, 0.0, 0.0, 0.0, 0.0, 1.6879228617209768E9, 0.0, 2023-06-28 12:27:41.720
94.0, -255.55858367215842, -316.7732661468908, -96.40714105777442, -130.43088090466335, -0.01600000075995922, -0.04800000227987766, 0.9920000471174717, 0.0, 0.0, 0.0, 0.0, 0.0, 1.6879228617209768E9, 0.0, 2023-06-28 12:27:41.720
95.0, -163.02223906852305, -209.18008432164788, -46.68517114687711, -81.71494408184662, -0.01600000075995922, -0.04800000227987766, 0.9920000471174717, 0.0, 0.0, 0.0, 0.0, 0.0, 1.6879228617367752E9, 0.0, 2023-06-28 12:27:41.736
95.0, -209.89814511314034, -282.48586335312575, -228.98659448698163, -234.55343557102606, -0.01600000075995922, -0.04800000227987766, 0.9920000471174717, 0.0, 0.0, 0.0, 0.0, 0.0, 1.6879228617367752E9, 0.0, 2023-06-28 12:27:41.736
96.0, -296.8732584826648, -340.88814106117934, -162.54727177415043, -183.60477847466245, -0.01600000075995922, -0.04800000227987766, 0.9920000471174717, 0.0, 0.0, 0.0, 0.0, 0.0, 1.687922861737366E9, 0.0, 2023-06-28 12:27:41.737
96.0, -206.03856835886836, -242.7045475244522, -29.608787949196994, -71.6807925007306, -0.01600000075995922, -0.04800000227987766, 0.9920000471174717, 0.0, 0.0, 0.0, 0.0, 0.0, 1.687922861737366E9, 0.0, 2023-06-28 12:27:41.737
97.0, -169.94853378646076, -239.62286996096373, -175.1208154251799, -193.37713705888018, -0.01600000075995922, -0.04800000227987766, 0.9920000471174717, 0.0, 0.0, 0.0, 0.0, 0.0, 1.6879228617512894E9, 0.0, 2023-06-28 12:27:41.751
97.0, -253.39318159781396, -320.9769136970863, -202.19769110437483, -219.88180804485455, -0.01600000075995922, -0.04800000227987766, 0.9920000471174717, 0.0, 0.0, 0.0, 0.0, 0.0, 1.6879228617512894E9, 0.0, 2023-06-28 12:27:41.751
98.0, -209.01926862355322, -264.4632854666561, -40.15156592428684, -79.50840310798958, -0.01600000075995922, -0.04800000227987766, 0.9920000471174717, 0.0, 0.0, 0.0, 0.0, 0.0, 1.687922861766678E9, 0.0, 2023-06-28 12:27:41.766
98.0, -175.9361136155203, -216.96281612943858, -99.58231612015516, -125.09778356784955, -0.01600000075995922, -0.04800000227987766, 0.9920000471174717, 0.0, 0.0, 0.0, 0.0, 0.0, 1.687922861766678E9, 0.0, 2023-06-28 12:27:41.766
99.0, -283.97060363553464, -356.08335458114743, -256.21680606435984, -256.2859942135401, -0.01600000075995922, -0.04800000227987766, 0.9920000471174717, 0.0, 0.0, 0.0, 0.0, 0.0, 1.687922861767404E9, 0.0, 2023-06-28 12:27:41.767
99.0, -257.7800842458382, -300.067133044824, -103.93555966857821, -135.94349343935028, -0.01600000075995922, -0.04800000227987766, 0.9920000471174717, 0.0, 0.0, 0.0, 0.0, 0.0, 1.687922861767404E9, 0.0, 2023-06-28 12:27:41.767
100.0, -141.76464772038162, -198.40543254930526, -40.390919521450996, -77.67585212970152, -0.01600000075995922, -0.04800000227987766, 0.9920000471174717, 0.0, 0.0, 0.0, 0.0, 0.0, 1.6879228617817547E9, 0.0, 2023-06-28 12:27:41.781
100.0, -207.4672101419419, -270.70517849270254, -226.52948021609336, -228.55463604209945, -0.01600000075995922, -0.04800000227987766, 0.9920000471174717, 0.0, 0.0, 0.0, 0.0, 0.0, 1.6879228617817547E9, 0.0, 2023-06-28 12:27:41.781
0.0, -268.1863558725454, -328.55021110735834, -153.21248148474842, -177.8490724428557, -0.01600000075995922, -0.04800000227987766, 0.9920000471174717, 0.0, 0.0, 0.0, 0.0, 0.0, 1.6879228617824564E9, 0.0, 2023-06-28 12:27:41.782
1.0, -208.21332018310204, -255.95501306746155, -29.7546440474689, -73.07577518420294, -0.01600000075995922, -0.04800000227987766, 0.9920000471174717, 0.0, 0.0, 0.0, 0.0, 0.0, 1.687922861796172E9, 0.0, 2023-06-28 12:27:41.796
1.0, -192.87225056486204, -275.4660711362958, -187.07727558352053, -194.04657915094867, -0.01600000075995922, -0.04800000227987766, 0.9920000471174717, 0.0, 0.0, 0.0, 0.0, 0.0, 1.687922861796172E9, 0.0, 2023-06-28 12:27:41.796
2.0, -305.5816155294888, -356.0945742810145, -230.49003426916897, -243.59277376392856, -0.01600000075995922, -0.04800000227987766, 0.9920000471174717, 0.0, 0.0, 0.0, 0.0, 0.0, 1.6879228618120103E9, 0.0, 2023-06-28 12:27:41.812
2.0, -198.80747179454193, -240.041738756001, -40.91824541520327, -85.63061933545396, -0.01600000075995922, -0.04800000227987766, 0.9920000471174717, 0.0, 0.0, 0.0, 0.0, 0.0, 1.6879228618120103E9, 0.0, 2023-06-28 12:27:41.812
3.0, -148.74143108772114, -212.86388577800244, -97.81708334106952, -123.10067699151114, -0.01600000075995922, -0.04800000227987766, 0.9920000471174717, 0.0, 0.0, 0.0, 0.0, 0.0, 1.687922861812518E9, 0.0, 2023-06-28 12:27:41.812
3.0, -252.96870295284316, -305.2281949836761, -244.1930277068168, -249.2849014964886, -0.01600000075995922, -0.04800000227987766, 0.9920000471174717, 0.0, 0.0, 0.0, 0.0, 0.0, 1.687922861812518E9, 0.0, 2023-06-28 12:27:41.812
4.0, -271.7841396299191, -317.91393563337624, -102.69017298333347, -137.03554422641173, -0.01600000075995922, -0.04800000227987766, 0.9920000471174717, 0.0, 0.0, 0.0, 0.0, 0.0, 1.6879228618260171E9, 0.0, 2023-06-28 12:27:41.826
4.0, -170.89285852527246, -255.32670987490565, -52.60917267668992, -86.12802602956071, -0.01600000075995922, -0.04800000227987766, 0.9920000471174717, 0.0, 0.0, 0.0, 0.0, 0.0, 1.6879228618260171E9, 0.0, 2023-06-28 12:27:41.826
5.0, -223.21779880532995, -300.2092492431402, -240.23247365374118, -239.73693690961227, -0.01600000075995922, -0.04800000227987766, 0.9920000471174717, 0.0, 0.0, 0.0, 0.0, 0.0, 1.6879228618417933E9, 0.0, 2023-06-28 12:27:41.841
5.0, -276.6647090720944, -304.9140433873981, -157.99207362812012, -184.7379681612365, -0.01600000075995922, -0.04800000227987766, 0.9920000471174717, 0.0, 0.0, 0.0, 0.0, 0.0, 1.6879228618417933E9, 0.0, 2023-06-28 12:27:41.841
6.0, -223.6441474002786, -236.5972908968106, -32.06216232012957, -74.7587301642634, -0.01600000075995922, -0.04800000227987766, 0.9920000471174717, 0.0, 0.0, 0.0, 0.0, 0.0, 1.687922861842451E9, 0.0, 2023-06-28 12:27:41.842
6.0, -175.2909808731638, -227.47193500492722, -170.84610977582633, -183.55615977523848, -0.01600000075995922, -0.04800000227987766, 0.9920000471174717, 0.0, 0.0, 0.0, 0.0, 0.0, 1.687922861842451E9, 0.0, 2023-06-28 12:27:41.842
7.0, -268.45936856931075, -349.5310498587787, -217.19842982664704, -226.13866067072377, -0.01600000075995922, -0.04800000227987766, 0.9920000471174717, 0.0, 0.0, 0.0, 0.0, 0.0, 1.6879228618562896E9, 0.0, 2023-06-28 12:27:41.856
7.0, -232.021523301024, -293.9972754167393, -57.05217382404953, -101.56633304664865, -0.01600000075995922, -0.04800000227987766, 0.9920000471174717, 0.0, 0.0, 0.0, 0.0, 0.0, 1.6879228618562896E9, 0.0, 2023-06-28 12:27:41.856
8.0, -161.55058843595907, -196.02685617748648, -92.18853390775621, -125.43437456386164, -0.01600000075995922, -0.04800000227987766, 0.9920000471174717, 0.0, 0.0, 0.0, 0.0, 0.0, 1.6879228618717432E9, 0.0, 2023-06-28 12:27:41.871
8.0, -281.1825082185678, -323.6023234659806, -250.46110003255308, -252.70690995594487, -0.01600000075995922, -0.04800000227987766, 0.9920000471174717, 0.0, 0.0, 0.0, 0.0, 0.0, 1.6879228618717432E9, 0.0, 2023-06-28 12:27:41.871
9.0, -263.9901881222613, -321.24244659394026, -103.47181207407266, -137.83588281692937, -0.01600000075995922, -0.04800000227987766, 0.9920000471174717, 0.0, 0.0, 0.0, 0.0, 0.0, 1.687922861872453E9, 0.0, 2023-06-28 12:27:41.872
9.0, -148.49085779068992, -209.81586731411517, -38.63690644223243, -81.08290098933503, -0.01600000075995922, -0.04800000227987766, 0.9920000471174717, 0.0, 0.0, 0.0, 0.0, 0.0, 1.687922861872453E9, 0.0, 2023-06-28 12:27:41.872
10.0, -201.12620976706967, -282.3250476550311, -221.05052678100765, -226.7220850638114, -0.01600000075995922, -0.04800000227987766, 0.9920000471174717, 0.0, 0.0, 0.0, 0.0, 0.0, 1.687922861885959E9, 0.0, 2023-06-28 12:27:41.885
10.0, -291.1979602999054, -340.22243886906654, -163.27281236555427, -181.656290597748, -0.01600000075995922, -0.04800000227987766, 0.9920000471174717, 0.0, 0.0, 0.0, 0.0, 0.0, 1.687922861885959E9, 0.0, 2023-06-28 12:27:41.885
11.0, -192.8834702647291, -241.99396653287113, -32.024763320572674, -78.00870322575793, -0.01600000075995922, -0.04800000227987766, 0.9920000471174717, 0.0, 0.0, 0.0, 0.0, 0.0, 1.6879228619017131E9, 0.0, 2023-06-28 12:27:41.901
11.0, -205.57669071434066, -224.45757564064115, -168.4114349046722, -180.13041141582653, -0.01600000075995922, -0.04800000227987766, 0.9920000471174717, 0.0, 0.0, 0.0, 0.0, 0.0, 1.6879228619017131E9, 0.0, 2023-06-28 12:27:41.901
12.0, -267.8123658769764, -340.5964288646355, -225.01856063399464, -233.79049598006532, -0.01600000075995922, -0.04800000227987766, 0.9920000471174717, 0.0, 0.0, 0.0, 0.0, 0.0, 1.6879228619024024E9, 0.0, 2023-06-28 12:27:41.902
12.0, -199.4507345869206, -275.6044474346563, -48.03153513092548, -91.16941116983071, -0.01600000075995922, -0.04800000227987766, 0.9920000471174717, 0.0, 0.0, 0.0, 0.0, 0.0, 1.6879228619024024E9, 0.0, 2023-06-28 12:27:41.902
13.0, -168.64891855185851, -218.02120781689882, -98.19855313654989, -120.06761812744662, -0.01600000075995922, -0.04800000227987766, 0.9920000471174717, 0.0, 0.0, 0.0, 0.0, 0.0, 1.6879228619160247E9, 0.0, 2023-06-28 12:27:41.916
13.0, -267.371057682205, -337.021084506996, -255.9325736677274, -256.53282761061564, -0.01600000075995922, -0.04800000227987766, 0.9920000471174717, 0.0, 0.0, 0.0, 0.0, 0.0, 1.6879228619160247E9, 0.0, 2023-06-28 12:27:41.916
14.0, -250.71728317951784, -302.71124231349677, -100.46119260974228, -139.70957269473, -0.01600000075995922, -0.04800000227987766, 0.9920000471174717, 0.0, 0.0, 0.0, 0.0, 0.0, 1.687922861931887E9, 0.0, 2023-06-28 12:27:41.931
14.0, -161.0980605413206, -200.85880692023784, -41.82704110443592, -81.71494408184662, -0.01600000075995922, -0.04800000227987766, 0.9920000471174717, 0.0, 0.0, 0.0, 0.0, 0.0, 1.687922861931887E9, 0.0, 2023-06-28 12:27:41.931
15.0, -224.2687106928788, -278.1027006050572, -226.27516701910645, -224.13781419442967, -0.01600000075995922, -0.04800000227987766, 0.9920000471174717, 0.0, 0.0, 0.0, 0.0, 0.0, 1.6879228619324703E9, 0.0, 2023-06-28 12:27:41.932
15.0, -280.38964942796156, -329.99007259029895, -166.27221213001758, -190.34781809477136, -0.01600000075995922, -0.04800000227987766, 0.9920000471174717, 0.0, 0.0, 0.0, 0.0, 0.0, 1.6879228619324703E9, 0.0, 2023-06-28 12:27:41.932
16.0, -181.83954569557682, -252.0131585141644, -25.476198498159647, -66.05972286732867, -0.01600000075995922, -0.04800000227987766, 0.9920000471174717, 0.0, 0.0, 0.0, 0.0, 0.0, 1.6879228619460113E9, 0.0, 2023-06-28 12:27:41.946
16.0, -186.34986504213884, -248.6397687541321, -174.9338204273954, -184.67812976194546, -0.01600000075995922, -0.04800000227987766, 0.9920000471174717, 0.0, 0.0, 0.0, 0.0, 0.0, 1.6879228619460113E9, 0.0, 2023-06-28 12:27:41.946
17.0, -269.4841011571698, -331.2616385752335, -220.04075379297137, -235.46971106017008, -0.01600000075995922, -0.04800000227987766, 0.9920000471174717, 0.0, 0.0, 0.0, 0.0, 0.0, 1.6879228619620876E9, 0.0, 2023-06-28 12:27:41.962
17.0, -236.71135784545913, -275.656806034036, -54.127572058700025, -91.21428996929899, -0.01600000075995922, -0.04800000227987766, 0.9920000471174717, 0.0, 0.0, 0.0, 0.0, 0.0, 1.6879228619620876E9, 0.0, 2023-06-28 12:27:41.962
18.0, -160.7577296453528, -217.29940712545067, -99.73191211838275, -123.28019218938425, -0.01600000075995922, -0.04800000227987766, 0.9920000471174717, 0.0, 0.0, 0.0, 0.0, 0.0, 1.687922861976745E9, 0.0, 2023-06-28 12:27:41.976
18.0, -251.46526317065582, -329.4964057961479, -250.79769102856517, -248.30878760805354, -0.01600000075995922, -0.04800000227987766, 0.9920000471174717, 0.0, 0.0, 0.0, 0.0, 0.0, 1.687922861976745E9, 0.0, 2023-06-28 12:27:41.976
19.0, -273.87100380519405, -342.9039471372962, -110.78705638740212, -139.76567119406536, -0.01600000075995922, -0.04800000227987766, 0.9920000471174717, 0.0, 0.0, 0.0, 0.0, 0.0, 1.6879228619774563E9, 0.0, 2023-06-28 12:27:41.977
19.0, -162.29108862718567, -191.36320093274117, -42.53014229610562, -87.3958521145396, -0.01600000075995922, -0.04800000227987766, 0.9920000471174717, 0.0, 0.0, 0.0, 0.0, 0.0, 1.6879228619774563E9, 0.0, 2023-06-28 12:27:41.977
20.0, -200.00797968031839, -247.42430126853287, -219.49846829939634, -225.13636748259887, -0.01600000075995922, -0.04800000227987766, 0.9920000471174717, 0.0, 0.0, 0.0, 0.0, 0.0, 1.6879228619917505E9, 0.0, 2023-06-28 12:27:41.991
20.0, -280.95063442131504, -330.1508882883936, -159.3758366117254, -184.74544796114787, -0.01600000075995922, -0.04800000227987766, 0.9920000471174717, 0.0, 0.0, 0.0, 0.0, 0.0, 1.6879228619917505E9, 0.0, 2023-06-28 12:27:41.991
21.0, -198.336244400125, -263.9359595729038, -30.910273133777082, -75.49923035549, -0.01600000075995922, -0.04800000227987766, 0.9920000471174717, 0.0, 0.0, 0.0, 0.0, 0.0, 1.6879228619924135E9, 0.0, 2023-06-28 12:27:41.992
21.0, -163.42053841380402, -242.38665602821857, -171.39213516935706, -186.0357134458609, -0.01600000075995922, -0.04800000227987766, 0.9920000471174717, 0.0, 0.0, 0.0, 0.0, 0.0, 1.6879228619924135E9, 0.0, 2023-06-28 12:27:41.992
22.0, -265.90875679953024, -332.17043426446617, -215.10782575141639, -225.44677917892113, -0.01600000075995922, -0.04800000227987766, 0.9920000471174717, 0.0, 0.0, 0.0, 0.0, 0.0, 1.6879228620060349E9, 0.0, 2023-06-28 12:27:42.006
22.0, -219.9042474445887, -287.41879139468074, -51.12817229423672, -90.15589828183874, -0.01600000075995922, -0.04800000227987766, 0.9920000471174717, 0.0, 0.0, 0.0, 0.0, 0.0, 1.6879228620060349E9, 0.0, 2023-06-28 12:27:42.006
23.0, -162.84459382062778, -207.1343590458855, -95.95461316313595, -120.97267391672358, -0.01600000075995922, -0.04800000227987766, 0.9920000471174717, 0.0, 0.0, 0.0, 0.0, 0.0, 1.6879228620217257E9, 0.0, 2023-06-28 12:27:42.021
23.0, -259.6930430731736, -314.1216770783067, -247.14006887190044, -250.3993916832842, -0.01600000075995922, -0.04800000227987766, 0.9920000471174717, 0.0, 0.0, 0.0, 0.0, 0.0, 1.6879228620217257E9, 0.0, 2023-06-28 12:27:42.021
24.0, -243.51049596490338, -323.3704496687278, -98.87547502852976, -132.00163888605312, -0.01600000075995922, -0.04800000227987766, 0.9920000471174717, 0.0, 0.0, 0.0, 0.0, 0.0, 1.6879228620223832E9, 0.0, 2023-06-28 12:27:42.022
24.0, -130.16534800780937, -220.13051139190793, -33.4608849035576, -74.8671872629784, -0.01600000075995922, -0.04800000227987766, 0.9920000471174717, 0.0, 0.0, 0.0, 0.0, 0.0, 1.6879228620223832E9, 0.0, 2023-06-28 12:27:42.022
25.0, -208.12356258416548, -280.03622888214886, -226.01337402220815, -231.62509390572086, -0.01600000075995922, -0.04800000227987766, 0.9920000471174717, 0.0, 0.0, 0.0, 0.0, 0.0, 1.687922862036019E9, 0.0, 2023-06-28 12:27:42.036
25.0, -268.39205037010834, -316.3992761513218, -162.13214287906885, -184.86138485977426, -0.01600000075995922, -0.04800000227987766, 0.9920000471174717, 0.0, 0.0, 0.0, 0.0, 0.0, 1.687922862036019E9, 0.0, 2023-06-28 12:27:42.036
26.0, -190.32537869503722, -253.03789110202342, -24.4926048098132, -74.26506337011233, -0.01600000075995922, -0.04800000227987766, 0.9920000471174717, 0.0, 0.0, 0.0, 0.0, 0.0, 1.68792286205177E9, 0.0, 2023-06-28 12:27:42.051
26.0, -182.5463867872022, -243.57220431417227, -167.35304321721196, -177.8041936433874, -0.01600000075995922, -0.04800000227987766, 0.9920000471174717, 0.0, 0.0, 0.0, 0.0, 0.0, 1.68792286205177E9, 0.0, 2023-06-28 12:27:42.051
27.0, -289.5000457200222, -337.0435239067301, -225.50848752819002, -238.5775679233484, -0.01600000075995922, -0.04800000227987766, 0.9920000471174717, 0.0, 0.0, 0.0, 0.0, 0.0, 1.6879228620525198E9, 0.0, 2023-06-28 12:27:42.052
27.0, -217.4134740740992, -278.6898648981005, -53.05048087146133, -94.16133113438264, -0.01600000075995922, -0.04800000227987766, 0.9920000471174717, 0.0, 0.0, 0.0, 0.0, 0.0, 1.6879228620525198E9, 0.0, 2023-06-28 12:27:42.052
28.0, -131.31349729420617, -208.768695326522, -79.82816455420107, -110.80388593720272, -0.01600000075995922, -0.04800000227987766, 0.9920000471174717, 0.0, 0.0, 0.0, 0.0, 0.0, 1.6879228620660417E9, 0.0, 2023-06-28 12:27:42.066
28.0, -233.30056908586994, -322.0390452845022, -243.73675991222262, -244.92043824819848, -0.01600000075995922, -0.04800000227987766, 0.9920000471174717, 0.0, 0.0, 0.0, 0.0, 0.0, 1.6879228620660417E9, 0.0, 2023-06-28 12:27:42.066
29.0, -251.38298537163064, -311.1895955130458, -105.3829009514302, -138.05653691431507, -0.01600000075995922, -0.04800000227987766, 0.9920000471174717, 0.0, 0.0, 0.0, 0.0, 0.0, 1.6879228620817354E9, 0.0, 2023-06-28 12:27:42.081
29.0, -155.40219290880486, -221.25996117852628, -35.69734507706016, -72.60080788983032, -0.01600000075995922, -0.04800000227987766, 0.9920000471174717, 0.0, 0.0, 0.0, 0.0, 0.0, 1.6879228620817354E9, 0.0, 2023-06-28 12:27:42.081
30.0, -226.123701070901, -293.67938392050564, -231.42500925809145, -227.59722165344283, -0.01600000075995922, -0.04800000227987766, 1.008000047877431, 0.0, 0.0, 0.0, 0.0, 0.0, 1.6879228620824192E9, 0.0, 2023-06-28 12:27:42.082
30.0, -286.3360903575085, -327.963046814315, -168.17956110741943, -194.37569034704939, -0.01600000075995922, -0.04800000227987766, 1.008000047877431, 0.0, 0.0, 0.0, 0.0, 0.0, 1.6879228620824192E9, 0.0, 2023-06-28 12:27:42.082
31.0, -177.30304704932496, -242.60731012560427, -24.750657906755805, -64.48522498598322, -0.01600000075995922, -0.04800000227987766, 1.008000047877431, 0.0, 0.0, 0.0, 0.0, 0.0, 1.6879228620961096E9, 0.0, 2023-06-28 12:27:42.096
31.0, -171.45010361867025, -229.19976878445596, -162.25555957760662, -169.6960905394517, -0.01600000075995922, -0.04800000227987766, 1.008000047877431, 0.0, 0.0, 0.0, 0.0, 0.0, 1.6879228620961096E9, 0.0, 2023-06-28 12:27:42.096
32.0, -272.195528625045, -342.87776783760637, -218.56349331047386, -234.7179911690764, -0.01600000075995922, -0.04800000227987766, 1.008000047877431, 0.0, 0.0, 0.0, 0.0, 0.0, 1.6879228621117082E9, 0.0, 2023-06-28 12:27:42.111
32.0, -197.02727941563353, -265.9143666494638, -43.58105418365449, -90.00256238365546, -0.01600000075995922, -0.04800000227987766, 1.008000047877431, 0.0, 0.0, 0.0, 0.0, 0.0, 1.6879228621117082E9, 0.0, 2023-06-28 12:27:42.111
33.0, -138.2659713118337, -201.9433779073879, -81.78413223102689, -107.26594057912007, -0.01600000075995922, -0.04800000227987766, 1.008000047877431, 0.0, 0.0, 0.0, 0.0, 0.0, 1.6879228621124465E9, 0.0, 2023-06-28 12:27:42.112
33.0, -281.02917232038453, -323.0076793730259, -251.39233512151986, -251.27826817287132, -0.01600000075995922, -0.04800000227987766, 1.008000047877431, 0.0, 0.0, 0.0, 0.0, 0.0, 1.6879228621124465E9, 0.0, 2023-06-28 12:27:42.112
34.0, -276.066325079184, -328.44175400864333, -117.45155810844153, -145.06884933123365, -0.01600000075995922, -0.04800000227987766, 1.008000047877431, 0.0, 0.0, 0.0, 0.0, 0.0, 1.6879228621260667E9, 0.0, 2023-06-28 12:27:42.126
34.0, -146.24317791732028, -212.4674563826993, -38.54714884329587, -79.36254700971767, -0.01600000075995922, -0.04800000227987766, 1.008000047877431, 0.0, 0.0, 0.0, 0.0, 0.0, 1.6879228621260667E9, 0.0, 2023-06-28 12:27:42.126
35.0, -186.91085003549233, -269.44857210759073, -215.70620974432677, -219.81822974560782, -0.01600000075995922, -0.04800000227987766, 1.008000047877431, 0.0, 0.0, 0.0, 0.0, 0.0, 1.6879228621417906E9, 0.0, 2023-06-28 12:27:42.141
35.0, -268.54164636833593, -339.73625187482685, -171.5267715677619, -198.23900700127706, -0.01600000075995922, -0.04800000227987766, 1.008000047877431, 0.0, 0.0, 0.0, 0.0, 0.0, 1.6879228621417906E9, 0.0, 2023-06-28 12:27:42.141
36.0, -171.46506321849301, -236.20086150150746, -19.2679645717144, -65.95874556852505, -0.01600000075995922, -0.04800000227987766, 1.008000047877431, 0.0, 0.0, 0.0, 0.0, 0.0, 1.687922862142546E9, 0.0, 2023-06-28 12:27:42.142
36.0, -155.52186970738694, -223.64601735025644, -151.4846477052197, -166.9846630715765, -0.01600000075995922, -0.04800000227987766, 1.008000047877431, 0.0, 0.0, 0.0, 0.0, 0.0, 1.687922862142546E9, 0.0, 2023-06-28 12:27:42.142
37.0, -280.8608768223785, -345.0543896118179, -220.85605198331177, -236.36728704953566, -0.01600000075995922, -0.04800000227987766, 1.008000047877431, 0.0, 0.0, 0.0, 0.0, 0.0, 1.6879228621560297E9, 0.0, 2023-06-28 12:27:42.156
37.0, -231.864447502885, -305.3703111819923, -52.534374677576125, -93.56668704142794, -0.01600000075995922, -0.04800000227987766, 1.008000047877431, 0.0, 0.0, 0.0, 0.0, 0.0, 1.6879228621560297E9, 0.0, 2023-06-28 12:27:42.156
38.0, -149.69136567646638, -202.14159260503948, -86.69836077280343, -111.66032302705571, -0.01600000075995922, -0.04800000227987766, 1.008000047877431, 0.0, 0.0, 0.0, 0.0, 0.0, 1.6879228621717336E9, 0.0, 2023-06-28 12:27:42.171
38.0, -249.6962904916145, -318.0111730322242, -241.87802963424474, -250.30589418439195, -0.01600000075995922, -0.04800000227987766, 1.008000047877431, 0.0, 0.0, 0.0, 0.0, 0.0, 1.6879228621717336E9, 0.0, 2023-06-28 12:27:42.171
39.0, -251.61111926892772, -318.05231193173677, -103.87198136933148, -137.27489782357588, -0.01600000075995922, -0.04800000227987766, 1.008000047877431, 0.0, 0.0, 0.0, 0.0, 0.0, 1.6879228621723886E9, 0.0, 2023-06-28 12:27:42.172
39.0, -140.76796438219026, -198.11746025271714, -28.842108458280563, -69.29847622895613, -0.01600000075995922, -0.04800000227987766, 1.008000047877431, 0.0, 0.0, 0.0, 0.0, 0.0, 1.6879228621723886E9, 0.0, 2023-06-28 12:27:42.172
40.0, -188.43298931745812, -261.1572139058262, -214.30374726094306, -220.4614925379865, -0.01600000075995922, -0.04800000227987766, 1.008000047877431, 0.0, 0.0, 0.0, 0.0, 0.0, 1.687922862186025E9, 0.0, 2023-06-28 12:27:42.186
40.0, -261.94446284649894, -334.32087673898786, -163.8973756581545, -186.1441705445759, -0.01600000075995922, -0.04800000227987766, 1.008000047877431, 0.0, 0.0, 0.0, 0.0, 0.0, 1.687922862186025E9, 0.0, 2023-06-28 12:27:42.186
41.0, -205.61408971389756, -257.58560944814235, -30.872874134220183, -69.59766822541133, -0.01600000075995922, -0.03200000151991844, 1.008000047877431, 0.0, 0.0, 0.0, 0.0, 0.0, 1.68792286220206E9, 0.0, 2023-06-28 12:27:42.202
41.0, -182.74086158489808, -237.24803348910064, -162.479953574948, -179.70780272083357, -0.01600000075995922, -0.03200000151991844, 1.008000047877431, 0.0, 0.0, 0.0, 0.0, 0.0, 1.68792286220206E9, 0.0, 2023-06-28 12:27:42.202
42.0, -267.6665097787045, -333.6028159474954, -221.66761027369648, -238.02780262986198, -0.01600000075995922, -0.03200000151991844, 1.008000047877431, 0.0, 0.0, 0.0, 0.0, 0.0, 1.687922862202422E9, 0.0, 2023-06-28 12:27:42.202
42.0, -211.84102314012125, -285.6834778152406, -55.22336274571717, -95.05516722379252, -0.01600000075995922, -0.03200000151991844, 1.008000047877431, 0.0, 0.0, 0.0, 0.0, 0.0, 1.687922862202422E9, 0.0, 2023-06-28 12:27:42.202
43.0, -143.677606547717, -198.9439781429246, -82.1506424266845, -112.04179282253608, -0.01600000075995922, -0.03200000151991844, 1.008000047877431, 0.0, 0.0, 0.0, 0.0, 0.0, 1.687922862216055E9, 0.0, 2023-06-28 12:27:42.216
43.0, -236.54680224740878, -308.5828852439299, -239.86596345808357, -244.97279684757814, -0.01600000075995922, -0.03200000151991844, 1.008000047877431, 0.0, 0.0, 0.0, 0.0, 0.0, 1.687922862216055E9, 0.0, 2023-06-28 12:27:42.216
44.0, -263.57505922717974, -328.35199640970677, -108.80116951093078, -140.1583606894128, -0.01600000075995922, -0.03200000151991844, 1.008000047877431, 0.0, 0.0, 0.0, 0.0, 0.0, 1.6879228622317655E9, 0.0, 2023-06-28 12:27:42.231
44.0, -160.40617904951796, -208.28998813219368, -41.13515961263329, -79.21669091144577, -0.01600000075995922, -0.03200000151991844, 1.008000047877431, 0.0, 0.0, 0.0, 0.0, 0.0, 1.6879228622317655E9, 0.0, 2023-06-28 12:27:42.231
45.0, -191.96719477558509, -259.2274255286902, -210.70222360361367, -219.7172524468042, -0.01600000075995922, -0.03200000151991844, 1.008000047877431, 0.0, 0.0, 0.0, 0.0, 0.0, 1.687922862232355E9, 0.0, 2023-06-28 12:27:42.232
45.0, -262.49796803994104, -315.9654477564618, -159.17388201411813, -186.75377423735335, -0.01600000075995922, -0.03200000151991844, 1.008000047877431, 0.0, 0.0, 0.0, 0.0, 0.0, 1.687922862232355E9, 0.0, 2023-06-28 12:27:42.232
46.0, -181.12148490408435, -236.91518239304423, -21.76247784215957, -66.91242005722597, -0.01600000075995922, -0.03200000151991844, 1.008000047877431, 0.0, 0.0, 0.0, 0.0, 0.0, 1.6879228622460947E9, 0.0, 2023-06-28 12:27:42.246
46.0, -168.9555903482251, -220.0295340931043, -153.2611001841724, -169.79706783825532, -0.01600000075995922, -0.03200000151991844, 1.008000047877431, 0.0, 0.0, 0.0, 0.0, 0.0, 1.6879228622460947E9, 0.0, 2023-06-28 12:27:42.246
47.0, -271.72056133067235, -329.3729890976101, -221.4432162763551, -236.9133124430664, -0.01600000075995922, -0.03200000151991844, 1.008000047877431, 0.0, 0.0, 0.0, 0.0, 0.0, 1.687922862262082E9, 0.0, 2023-06-28 12:27:42.262
47.0, -213.91292771557346, -299.8090799478814, -55.14108494669199, -94.81955352658406, -0.01600000075995922, -0.03200000151991844, 1.008000047877431, 0.0, 0.0, 0.0, 0.0, 0.0, 1.687922862262082E9, 0.0, 2023-06-28 12:27:42.262
48.0, -142.230265264865, -212.9199842773378, -86.67966127302498, -114.36427069501951, -0.01600000075995922, -0.03200000151991844, 1.008000047877431, 0.0, 0.0, 0.0, 0.0, 0.0, 1.6879228622768135E9, 0.0, 2023-06-28 12:27:42.276
48.0, -260.3363058655523, -296.01308149285614, -242.30811812914908, -244.7596225501038, -0.01600000075995922, -0.03200000151991844, 1.008000047877431, 0.0, 0.0, 0.0, 0.0, 0.0, 1.6879228622768135E9, 0.0, 2023-06-28 12:27:42.276
49.0, -251.26704847300425, -300.46356244012713, -108.99564430862665, -139.7507115942426, -0.01600000075995922, -0.03200000151991844, 1.008000047877431, 0.0, 0.0, 0.0, 0.0, 0.0, 1.6879228622775204E9, 0.0, 2023-06-28 12:27:42.277
49.0, -142.00213136756793, -208.34982653148472, -31.85646782256663, -72.69430538872257, -0.01600000075995922, -0.03200000151991844, 1.008000047877431, 0.0, 0.0, 0.0, 0.0, 0.0, 1.6879228622775204E9, 0.0, 2023-06-28 12:27:42.277
50.0, -206.08905700827017, -278.9927967945114, -221.697529473342, -226.015243972186, -0.01600000075995922, -0.03200000151991844, 1.008000047877431, 0.0, 0.0, 0.0, 0.0, 0.0, 1.6879228622913585E9, 0.0, 2023-06-28 12:27:42.291
50.0, -254.50206193467602, -352.95679821819067, -166.54148492682725, -196.0399458273314, -0.01600000075995922, -0.03200000151991844, 1.008000047877431, 0.0, 0.0, 0.0, 0.0, 0.0, 1.6879228622913585E9, 0.0, 2023-06-28 12:27:42.291
51.0, -176.49148875894025, -233.23138093668967, -23.72592531889677, -71.25070400582626, -0.01600000075995922, -0.04800000227987766, 1.008000047877431, 0.0, 0.0, 0.0, 0.0, 0.0, 1.687922862307031E9, 0.0, 2023-06-28 12:27:42.307
51.0, -167.86353956116363, -217.91275071818382, -155.9276488525793, -169.79332793829963, -0.01600000075995922, -0.04800000227987766, 1.008000047877431, 0.0, 0.0, 0.0, 0.0, 0.0, 1.687922862307031E9, 0.0, 2023-06-28 12:27:42.307
52.0, -273.60921080829576, -341.32944925595075, -223.47024205233902, -233.86155407922342, -0.01600000075995922, -0.04800000227987766, 1.008000047877431, 0.0, 0.0, 0.0, 0.0, 0.0, 1.687922862307284E9, 0.0, 2023-06-28 12:27:42.307
52.0, -204.82497082324699, -280.44387797731906, -51.89859168510884, -94.99906872445717, -0.01600000075995922, -0.04800000227987766, 1.008000047877431, 0.0, 0.0, 0.0, 0.0, 0.0, 1.687922862307284E9, 0.0, 2023-06-28 12:27:42.307
53.0, -142.32376276375726, -212.9125044774264, -76.15932269766927, -104.92850310681388, -0.01600000075995922, -0.04800000227987766, 1.008000047877431, 0.0, 0.0, 0.0, 0.0, 0.0, 1.6879228623216224E9, 0.0, 2023-06-28 12:27:42.321
53.0, -245.14109234558418, -307.5955516556278, -243.1869946187362, -243.96676375949755, -0.01600000075995922, -0.04800000227987766, 1.008000047877431, 0.0, 0.0, 0.0, 0.0, 0.0, 1.6879228623216224E9, 0.0, 2023-06-28 12:27:42.321
54.0, -234.08594807656482, -316.1861018538475, -106.59088863711804, -146.47131181461737, -0.01600000075995922, -0.04800000227987766, 1.008000047877431, 0.0, 0.0, 0.0, 0.0, 0.0, 1.687922862322347E9, 0.0, 2023-06-28 12:27:42.322
54.0, -141.58326257253066, -214.3935048598796, -30.697098836302757, -73.71529807662591, -0.01600000075995922, -0.04800000227987766, 1.008000047877431, 0.0, 0.0, 0.0, 0.0, 0.0, 1.687922862322347E9, 0.0, 2023-06-28 12:27:42.322
55.0, -199.5554517856799, -280.6121734753251, -216.921677229926, -219.13382805371657, -0.01600000075995922, -0.04800000227987766, 1.008000047877431, 0.0, 0.0, 0.0, 0.0, 0.0, 1.6879228623362148E9, 0.0, 2023-06-28 12:27:42.336
55.0, -277.7006613598205, -344.06331612356007, -174.88520172797143, -198.73641369538382, -0.01600000075995922, -0.04800000227987766, 1.008000047877431, 0.0, 0.0, 0.0, 0.0, 0.0, 1.6879228623362148E9, 0.0, 2023-06-28 12:27:42.336
56.0, -172.37385890772566, -253.2697648992762, -28.12030776683241, -73.74147737631574, -0.01600000075995922, -0.04800000227987766, 1.008000047877431, 0.0, 0.0, 0.0, 0.0, 0.0, 1.6879228623517003E9, 0.0, 2023-06-28 12:27:42.351
56.0, -158.15849917614833, -241.8555902345106, -155.291865860112, -171.11725252261385, -0.01600000075995922, -0.04800000227987766, 1.008000047877431, 0.0, 0.0, 0.0, 0.0, 0.0, 1.6879228623517003E9, 0.0, 2023-06-28 12:27:42.351
57.0, -252.68447055621073, -323.17971477098763, -222.02290076948702, -235.51458985963836, -0.01600000075995922, -0.04800000227987766, 1.008000047877431, 0.0, 0.0, 0.0, 0.0, 0.0, 1.6879228623524606E9, 0.0, 2023-06-28 12:27:42.352
57.0, -220.21839904086664, -269.1942589106038, -54.0265947598964, -104.38995751319453, -0.01600000075995922, -0.04800000227987766, 1.008000047877431, 0.0, 0.0, 0.0, 0.0, 0.0, 1.6879228623524606E9, 0.0, 2023-06-28 12:27:42.352
58.0, -133.83792976429686, -211.27442829683423, -75.21312800887972, -109.15832995669916, -0.01600000075995922, -0.04800000227987766, 1.008000047877431, 0.0, 0.0, 0.0, 0.0, 0.0, 1.6879228623659692E9, 0.0, 2023-06-28 12:27:42.365
58.0, -231.7971293036826, -320.5505651021376, -240.4082489516586, -245.30564794363454, -0.01600000075995922, -0.04800000227987766, 1.008000047877431, 0.0, 0.0, 0.0, 0.0, 0.0, 1.6879228623659692E9, 0.0, 2023-06-28 12:27:42.365
59.0, -252.56105385767296, -339.92324687261134, -110.52152349054813, -147.54092320194468, -0.01600000075995922, -0.04800000227987766, 1.008000047877431, 0.0, 0.0, 0.0, 0.0, 0.0, 1.6879228623816378E9, 0.0, 2023-06-28 12:27:42.381
59.0, -155.11422061221674, -238.24658677726984, -39.08943433687091, -80.33118109824136, -0.01600000075995922, -0.04800000227987766, 1.008000047877431, 0.0, 0.0, 0.0, 0.0, 0.0, 1.6879228623816378E9, 0.0, 2023-06-28 12:27:42.381
60.0, -193.01062686322257, -257.66414734721184, -210.34319320786744, -216.36630208650604, -0.01600000075995922, -0.04800000227987766, 0.9920000471174717, 0.0, 0.0, 0.0, 0.0, 0.0, 1.687922862382403E9, 0.0, 2023-06-28 12:27:42.382
60.0, -259.79402037197724, -345.5405766060576, -172.1924737598747, -194.05779885081574, -0.01600000075995922, -0.04800000227987766, 0.9920000471174717, 0.0, 0.0, 0.0, 0.0, 0.0, 1.687922862382403E9, 0.0, 2023-06-28 12:27:42.382
61.0, -184.03860686952248, -258.80481683369726, -32.61566751357168, -80.78744889283553, -0.01600000075995922, -0.03200000151991844, 0.9920000471174717, 0.0, 0.0, 0.0, 0.0, 0.0, 1.6879228623961277E9, 0.0, 2023-06-28 12:27:42.396
61.0, -187.4793148287572, -232.27770644798875, -156.75790664274246, -166.15066538145766, -0.01600000075995922, -0.03200000151991844, 0.9920000471174717, 0.0, 0.0, 0.0, 0.0, 0.0, 1.6879228623961277E9, 0.0, 2023-06-28 12:27:42.396
62.0, -274.64516309602186, -360.1261864332482, -228.5565059920773, -241.93973798351362, -0.01600000075995922, -0.03200000151991844, 0.9920000471174717, 0.0, 0.0, 0.0, 0.0, 0.0, 1.6879228624116924E9, 0.0, 2023-06-28 12:27:42.411
62.0, -221.14589422987774, -302.38213111739606, -66.52160051185638, -105.59420529892668, -0.01600000075995922, -0.03200000151991844, 0.9920000471174717, 0.0, 0.0, 0.0, 0.0, 0.0, 1.6879228624116924E9, 0.0, 2023-06-28 12:27:42.411
63.0, -126.51520565105602, -205.77303546201438, -76.5894111925736, -107.59131187526509, -0.01600000075995922, -0.03200000151991844, 0.9920000471174717, 0.0, 0.0, 0.0, 0.0, 0.0, 1.687922862412403E9, 0.0, 2023-06-28 12:27:42.412
63.0, -228.28536324528977, -311.12601721379906, -240.0791377555579, -242.60918007558212, -0.01600000075995922, -0.03200000151991844, 0.9920000471174717, 0.0, 0.0, 0.0, 0.0, 0.0, 1.687922862412403E9, 0.0, 2023-06-28 12:27:42.412
64.0, -258.90766408247873, -328.54273130744696, -114.69525184109807, -146.5648093135096, -0.01600000075995922, -0.03200000151991844, 0.9920000471174717, 0.0, 0.0, 0.0, 0.0, 0.0, 1.6879228624261096E9, 0.0, 2023-06-28 12:27:42.426
64.0, -167.60174656426534, -245.35239669308066, -38.7603231407702, -77.59357433067635, -0.01600000075995922, -0.03200000151991844, 0.9920000471174717, 0.0, 0.0, 0.0, 0.0, 0.0, 1.6879228624261096E9, 0.0, 2023-06-28 12:27:42.426
65.0, -214.39163490990177, -284.64004572760314, -222.26973416656256, -225.40190037945285, -0.01600000075995922, -0.03200000151991844, 0.9920000471174717, 0.0, 0.0, 0.0, 0.0, 0.0, 1.687922862441729E9, 0.0, 2023-06-28 12:27:42.441
65.0, -263.186109631788, -348.58859506994486, -179.39178117457777, -204.32008432922885, -0.01600000075995922, -0.03200000151991844, 0.9920000471174717, 0.0, 0.0, 0.0, 0.0, 0.0, 1.687922862441729E9, 0.0, 2023-06-28 12:27:42.441
66.0, -178.20062303869054, -260.10630201827735, -34.94936508592218, -81.07916108937934, -0.01600000075995922, -0.03200000151991844, 0.9920000471174717, 0.0, 0.0, 0.0, 0.0, 0.0, 1.6879228624425032E9, 0.0, 2023-06-28 12:27:42.442
66.0, -133.35922256996855, -217.10867222771049, -141.13260462787002, -161.44587123719975, -0.01600000075995922, -0.03200000151991844, 0.9920000471174717, 0.0, 0.0, 0.0, 0.0, 0.0, 1.6879228624425032E9, 0.0, 2023-06-28 12:27:42.442
67.0, -249.63645209232345, -326.8186374278739, -216.57012663409114, -229.40359333204105, -0.01600000075995922, -0.03200000151991844, 0.9920000471174717, 0.0, 0.0, 0.0, 0.0, 0.0, 1.687922862456004E9, 0.0, 2023-06-28 12:27:42.456
67.0, -224.9755517845042, -296.33845278900117, -62.213235762901604, -101.38681784877554, -0.01600000075995922, -0.03200000151991844, 0.9920000471174717, 0.0, 0.0, 0.0, 0.0, 0.0, 1.687922862456004E9, 0.0, 2023-06-28 12:27:42.456
68.0, -158.32679467415437, -228.9604151872918, -84.34596370067447, -109.67443615058437, -0.01600000075995922, -0.03200000151991844, 0.9920000471174717, 0.0, 0.0, 0.0, 0.0, 0.0, 1.6879228624716454E9, 0.0, 2023-06-28 12:27:42.471
68.0, -259.3003535778262, -321.32472439296544, -250.64435513038188, -254.79003423126414, -0.01600000075995922, -0.03200000151991844, 0.9920000471174717, 0.0, 0.0, 0.0, 0.0, 0.0, 1.6879228624716454E9, 0.0, 2023-06-28 12:27:42.471
69.0, -259.34897227725014, -329.4178678970784, -118.4613310964778, -151.44537875568494, -0.01600000075995922, -0.03200000151991844, 0.9920000471174717, 0.0, 0.0, 0.0, 0.0, 0.0, 1.6879228624723809E9, 0.0, 2023-06-28 12:27:42.472
69.0, -156.92433219077066, -243.9312347099185, -38.427472044713795, -78.02740272553638, -0.01600000075995922, -0.03200000151991844, 0.9920000471174717, 0.0, 0.0, 0.0, 0.0, 0.0, 1.6879228624723809E9, 0.0, 2023-06-28 12:27:42.472
70.0, -204.94464762182906, -288.63051898032427, -218.90756410639733, -229.13806043518707, -0.01600000075995922, -0.03200000151991844, 0.9920000471174717, 0.0, 0.0, 0.0, 0.0, 0.0, 1.6879228624859889E9, 0.0, 2023-06-28 12:27:42.485
70.0, -252.74056905554608, -330.9287874791771, -172.1513348603621, -194.0316195511259, -0.01600000075995922, -0.03200000151991844, 0.9920000471174717, 0.0, 0.0, 0.0, 0.0, 0.0, 1.6879228624859889E9, 0.0, 2023-06-28 12:27:42.485
71.0, -172.59825290506706, -242.47641362715513, -28.288603264838457, -72.75040388805792, -0.01600000075995922, -0.04800000227987766, 0.9920000471174717, 0.0, 0.0, 0.0, 0.0, 0.0, 1.6879228625180666E9, 0.0, 2023-06-28 12:27:42.518
71.0, -171.5810001171194, -223.79561334848404, -146.60781816300005, -159.62453995877877, -0.01600000075995922, -0.04800000227987766, 0.9920000471174717, 0.0, 0.0, 0.0, 0.0, 0.0, 1.6879228625180666E9, 0.0, 2023-06-28 12:27:42.518
72.0, -268.35091147059575, -352.6912653213367, -226.08443212136626, -237.6837318339385, -0.01600000075995922, -0.04800000227987766, 0.9920000471174717, 0.0, 0.0, 0.0, 0.0, 0.0, 1.6879228625187924E9, 0.0, 2023-06-28 12:27:42.518
72.0, -212.53290463192388, -301.7463481249288, -63.346425449475646, -102.35545193729922, -0.01600000075995922, -0.04800000227987766, 0.9920000471174717, 0.0, 0.0, 0.0, 0.0, 0.0, 1.6879228625187924E9, 0.0, 2023-06-28 12:27:42.518
73.0, -149.9830778730102, -236.65712929610163, -79.38311645947397, -109.11719105718657, -0.01600000075995922, -0.04800000227987766, 0.9920000471174717, 0.0, 0.0, 0.0, 0.0, 0.0, 1.6879228625195844E9, 0.0, 2023-06-28 12:27:42.519
73.0, -262.08283914485946, -330.0386912897229, -248.31813735794276, -251.59241976914927, -0.01600000075995922, -0.04800000227987766, 0.9920000471174717, 0.0, 0.0, 0.0, 0.0, 0.0, 1.6879228625195844E9, 0.0, 2023-06-28 12:27:42.519
74.0, -252.57601345749572, -316.87798334565014, -123.19604444038123, -152.14847994735464, -0.01600000075995922, -0.04800000227987766, 0.9920000471174717, 0.0, 0.0, 0.0, 0.0, 0.0, 1.6879228625202188E9, 0.0, 2023-06-28 12:27:42.520
74.0, -155.51812980743125, -223.34682535380125, -35.13262018375099, -76.25095024658367, -0.01600000075995922, -0.04800000227987766, 0.9920000471174717, 0.0, 0.0, 0.0, 0.0, 0.0, 1.6879228625202188E9, 0.0, 2023-06-28 12:27:42.520
75.0, -189.34178500669077, -258.8309961333871, -204.7670023739338, -211.08930324902758, -0.01600000075995922, -0.04800000227987766, 0.9920000471174717, 0.0, 0.0, 0.0, 0.0, 0.0, 1.6879228625312986E9, 0.0, 2023-06-28 12:27:42.531
75.0, -268.72116156620905, -332.5257247602567, -178.29599048756063, -196.24190042493865, -0.01600000075995922, -0.04800000227987766, 0.9920000471174717, 0.0, 0.0, 0.0, 0.0, 0.0, 1.6879228625312986E9, 0.0, 2023-06-28 12:27:42.531
76.0, -183.94136947067454, -260.966479008086, -35.44677178002894, -81.90567897958681, -0.01600000075995922, -0.04800000227987766, 0.9920000471174717, 0.0, 0.0, 0.0, 0.0, 0.0, 1.6879228625462155E9, 0.0, 2023-06-28 12:27:42.546
76.0, -147.73913789959624, -262.1333277942613, -145.1791763799265, -162.19759112829342, -0.01600000075995922, -0.04800000227987766, 0.9920000471174717, 0.0, 0.0, 0.0, 0.0, 0.0, 1.6879228625462155E9, 0.0, 2023-06-28 12:27:42.546
77.0, -276.066325079184, -382.83111906424165, -235.2995456121862, -244.52026895293966, -0.01600000075995922, -0.04800000227987766, 0.9920000471174717, 0.0, 0.0, 0.0, 0.0, 0.0, 1.6879228625617251E9, 0.0, 2023-06-28 12:27:42.561
77.0, -247.59820661647245, -271.5653554825112, -70.63175056315958, -106.07665239321068, -0.01600000075995922, -0.04800000227987766, 0.9920000471174717, 0.0, 0.0, 0.0, 0.0, 0.0, 1.6879228625617251E9, 0.0, 2023-06-28 12:27:42.561
78.0, -148.88354728603736, -192.12240062374622, -75.27670630812645, -110.02224684646353, -0.01600000075995922, -0.04800000227987766, 0.9920000471174717, 0.0, 0.0, 0.0, 0.0, 0.0, 1.687922862562403E9, 0.0, 2023-06-28 12:27:42.562
78.0, -228.3863405440934, -293.5559672219679, -233.08926473837346, -241.12069989321753, -0.01600000075995922, -0.04800000227987766, 0.9920000471174717, 0.0, 0.0, 0.0, 0.0, 0.0, 1.687922862562403E9, 0.0, 2023-06-28 12:27:42.562
79.0, -229.99823742499575, -311.94131540413946, -114.77004984021187, -149.41087317978963, -0.01600000075995922, -0.04800000227987766, 0.9920000471174717, 0.0, 0.0, 0.0, 0.0, 0.0, 1.687922862576015E9, 0.0, 2023-06-28 12:27:42.576
79.0, -145.06136953132227, -275.8662404315546, -38.2030780473724, -77.89650622708723, -0.01600000075995922, -0.04800000227987766, 0.9920000471174717, 0.0, 0.0, 0.0, 0.0, 0.0, 1.687922862576015E9, 0.0, 2023-06-28 12:27:42.576
80.0, -181.97418209398165, -284.0304420348257, -213.64552486874163, -221.44134632637724, -0.01600000075995922, -0.04800000227987766, 0.9920000471174717, 0.0, 0.0, 0.0, 0.0, 0.0, 1.6879228625917308E9, 0.0, 2023-06-28 12:27:42.591
80.0, -280.8870561220683, -309.9180295281112, -172.4206076571718, -197.86875690566376, -0.01600000075995922, -0.04800000227987766, 0.9920000471174717, 0.0, 0.0, 0.0, 0.0, 0.0, 1.6879228625917308E9, 0.0, 2023-06-28 12:27:42.591
81.0, -198.336244400125, -228.4742281930521, -30.072535543702543, -78.31911492208019, -0.01600000075995922, -0.04800000227987766, 0.9920000471174717, 0.0, 0.0, 0.0, 0.0, 0.0, 1.6879228625923836E9, 0.0, 2023-06-28 12:27:42.592
81.0, -151.7557904520072, -227.99178109876812, -138.1743437629193, -155.77244300441816, -0.01600000075995922, -0.04800000227987766, 0.9920000471174717, 0.0, 0.0, 0.0, 0.0, 0.0, 1.6879228625923836E9, 0.0, 2023-06-28 12:27:42.592
82.0, -258.1783835911192, -343.9847782244906, -225.7777603249997, -234.41505927266553, -0.01600000075995922, -0.04800000227987766, 0.9920000471174717, 0.0, 0.0, 0.0, 0.0, 0.0, 1.687922862606014E9, 0.0, 2023-06-28 12:27:42.606
82.0, -218.0903959660791, -293.38019192405045, -62.213235762901604, -102.18341653933749, -0.01600000075995922, -0.04800000227987766, 0.9920000471174717, 0.0, 0.0, 0.0, 0.0, 0.0, 1.687922862606014E9, 0.0, 2023-06-28 12:27:42.606
83.0, -136.4932587328367, -219.70790269691497, -78.93058856483549, -108.05131956981495, -0.01600000075995922, -0.04800000227987766, 0.9920000471174717, 0.0, 0.0, 0.0, 0.0, 0.0, 1.6879228626217237E9, 0.0, 2023-06-28 12:27:42.621
83.0, -237.8744667316787, -323.0899571720511, -233.9606614280492, -242.26510927965865, -0.01600000075995922, -0.04800000227987766, 0.9920000471174717, 0.0, 0.0, 0.0, 0.0, 0.0, 1.6879228626217237E9, 0.0, 2023-06-28 12:27:42.621
84.0, -247.78146171430126, -321.6687951888889, -117.71335110533983, -144.3507885397412, -0.01600000075995922, -0.04800000227987766, 0.9920000471174717, 0.0, 0.0, 0.0, 0.0, 0.0, 1.687922862622414E9, 0.0, 2023-06-28 12:27:42.622
84.0, -167.33621366741136, -216.89923783019185, -33.647879901342094, -67.98203144455329, -0.01600000075995922, -0.04800000227987766, 0.9920000471174717, 0.0, 0.0, 0.0, 0.0, 0.0, 1.687922862622414E9, 0.0, 2023-06-28 12:27:42.622
85.0, -228.62943404121324, -258.4981450373307, -212.1420850865543, -220.07628284255043, -0.01600000075995922, -0.04800000227987766, 0.9920000471174717, 0.0, 0.0, 0.0, 0.0, 0.0, 1.687922862636057E9, 0.0, 2023-06-28 12:27:42.636
85.0, -262.0230007455684, -341.4902649540454, -179.73211207054555, -204.94838752178475, -0.01600000075995922, -0.04800000227987766, 0.9920000471174717, 0.0, 0.0, 0.0, 0.0, 0.0, 1.687922862636057E9, 0.0, 2023-06-28 12:27:42.636
86.0, -170.25707553280517, -256.4262404618785, -34.93066558614373, -74.51189676718786, -0.01600000075995922, -0.04800000227987766, 0.9920000471174717, 0.0, 0.0, 0.0, 0.0, 0.0, 1.6879228626517391E9, 0.0, 2023-06-28 12:27:42.651
86.0, -169.49413594184443, -236.38037669938058, -145.29885317850858, -163.71225061034784, -0.01600000075995922, -0.04800000227987766, 0.9920000471174717, 0.0, 0.0, 0.0, 0.0, 0.0, 1.6879228626517391E9, 0.0, 2023-06-28 12:27:42.651
87.0, -271.2156748366542, -355.47749078832567, -226.79875301290303, -237.51543633593246, -0.01600000075995922, -0.04800000227987766, 0.9920000471174717, 0.0, 0.0, 0.0, 0.0, 0.0, 1.6879228626524067E9, 0.0, 2023-06-28 12:27:42.652
87.0, -222.9373063086532, -295.23892220202833, -70.69158896245062, -109.62207755120471, -0.01600000075995922, -0.04800000227987766, 0.9920000471174717, 0.0, 0.0, 0.0, 0.0, 0.0, 1.6879228626524067E9, 0.0, 2023-06-28 12:27:42.652
88.0, -137.6376681192778, -209.84952641371638, -75.09719111025333, -105.49696790007874, -0.01600000075995922, -0.04800000227987766, 0.9920000471174717, 0.0, 0.0, 0.0, 0.0, 0.0, 1.6879228626659973E9, 0.0, 2023-06-28 12:27:42.665
88.0, -253.20431665005162, -308.6015847437084, -235.90540940500796, -236.99933014204726, -0.01600000075995922, -0.04800000227987766, 0.9920000471174717, 0.0, 0.0, 0.0, 0.0, 0.0, 1.6879228626659973E9, 0.0, 2023-06-28 12:27:42.665
89.0, -258.8366059833206, -310.8829237166792, -122.15261235274374, -152.21579814655706, -0.01600000075995922, -0.04800000227987766, 0.9920000471174717, 0.0, 0.0, 0.0, 0.0, 0.0, 1.6879228626817715E9, 0.0, 2023-06-28 12:27:42.681
89.0, -147.87377429800108, -205.97499005962163, -38.072181548923254, -78.0909810247831, -0.01600000075995922, -0.04800000227987766, 0.9920000471174717, 0.0, 0.0, 0.0, 0.0, 0.0, 1.6879228626817715E9, 0.0, 2023-06-28 12:27:42.681
90.0, -174.37844528397545, -267.3093493329361, -203.10648679360747, -209.28293157042935, -0.01600000075995922, -0.04800000227987766, 1.008000047877431, 0.0, 0.0, 0.0, 0.0, 0.0, 1.687922862682475E9, 0.0, 2023-06-28 12:27:42.682
90.0, -277.49496686225757, -340.7946435622871, -177.3797149984166, -198.7064944957383, -0.01600000075995922, -0.04800000227987766, 1.008000047877431, 0.0, 0.0, 0.0, 0.0, 0.0, 1.687922862682475E9, 0.0, 2023-06-28 12:27:42.682
91.0, -191.90735637629405, -250.95850672665983, -40.94816461484879, -81.71494408184662, -0.01600000075995922, -0.03200000151991844, 1.008000047877431, 0.0, 0.0, 0.0, 0.0, 0.0, 1.6879228626961212E9, 0.0, 2023-06-28 12:27:42.696
91.0, -154.39989972067997, -232.86113084107637, -139.46834914758801, -155.39845300884917, -0.01600000075995922, -0.03200000151991844, 1.008000047877431, 0.0, 0.0, 0.0, 0.0, 0.0, 1.6879228626961212E9, 0.0, 2023-06-28 12:27:42.696
92.0, -260.725255460944, -321.87822958640754, -213.44731017109007, -229.08196193585172, -0.01600000075995922, -0.03200000151991844, 1.008000047877431, 0.0, 0.0, 0.0, 0.0, 0.0, 1.6879228627118845E9, 0.0, 2023-06-28 12:27:42.711
92.0, -228.03852984821424, -290.8482796540484, -67.81934579648077, -104.04962661722675, -0.01600000075995922, -0.03200000151991844, 1.008000047877431, 0.0, 0.0, 0.0, 0.0, 0.0, 1.6879228627118845E9, 0.0, 2023-06-28 12:27:42.711
93.0, -157.47035758430138, -210.62742560449988, -77.27007298450917, -110.28403984336182, -0.01600000075995922, -0.03200000151991844, 1.008000047877431, 0.0, 0.0, 0.0, 0.0, 0.0, 1.6879228627124424E9, 0.0, 2023-06-28 12:27:42.712
93.0, -227.42892615543678, -303.20490910764784, -223.19722935557365, -236.26630975073203, -0.01600000075995922, -0.03200000151991844, 1.008000047877431, 0.0, 0.0, 0.0, 0.0, 0.0, 1.6879228627124424E9, 0.0, 2023-06-28 12:27:42.712
94.0, -255.6614309209399, -314.7013615714386, -114.5344361430034, -143.94687934452668, -0.01600000075995922, -0.03200000151991844, 1.008000047877431, 0.0, 0.0, 0.0, 0.0, 0.0, 1.6879228627259593E9, 0.0, 2023-06-28 12:27:42.725
94.0, -160.95594434300438, -228.38447059411556, -41.44557130895555, -78.18821842363104, -0.01600000075995922, -0.03200000151991844, 1.008000047877431, 0.0, 0.0, 0.0, 0.0, 0.0, 1.6879228627259593E9, 0.0, 2023-06-28 12:27:42.725
95.0, -194.75342024257407, -259.9716656198725, -202.70631749834865, -212.88819512771443, -0.01600000075995922, -0.03200000151991844, 1.008000047877431, 0.0, 0.0, 0.0, 0.0, 0.0, 1.6879228627419534E9, 0.0, 2023-06-28 12:27:42.741
95.0, -288.5987298307009, -358.30485515482724, -188.44607896730304, -210.16180806001648, -0.01600000075995922, -0.03200000151991844, 1.008000047877431, 0.0, 0.0, 0.0, 0.0, 0.0, 1.6879228627419534E9, 0.0, 2023-06-28 12:27:42.741
96.0, -212.7872178289108, -267.62724082916975, -53.81342046242207, -99.78988056769595, -0.01600000075995922, -0.03200000151991844, 1.008000047877431, 0.0, 0.0, 0.0, 0.0, 0.0, 1.687922862742446E9, 0.0, 2023-06-28 12:27:42.742
96.0, -159.27298936294392, -223.5899188509211, -139.71518254466355, -164.94267769576982, -0.01600000075995922, -0.03200000151991844, 1.008000047877431, 0.0, 0.0, 0.0, 0.0, 0.0, 1.687922862742446E9, 0.0, 2023-06-28 12:27:42.742
97.0, -257.3294263011776, -316.82936464622617, -210.51896850578487, -230.26377032184973, -0.01600000075995922, -0.03200000151991844, 1.008000047877431, 0.0, 0.0, 0.0, 0.0, 0.0, 1.6879228627560234E9, 0.0, 2023-06-28 12:27:42.756
97.0, -220.46897233789787, -288.1443319860846, -72.74479403812438, -106.41698328917846, -0.01600000075995922, -0.03200000151991844, 1.008000047877431, 0.0, 0.0, 0.0, 0.0, 0.0, 1.6879228627560234E9, 0.0, 2023-06-28 12:27:42.756
98.0, -135.69666004227474, -194.78146949224174, -76.24908029660583, -108.2532741674222, -0.01600000075995922, -0.03200000151991844, 1.008000047877431, 0.0, 0.0, 0.0, 0.0, 0.0, 1.687922862771731E9, 0.0, 2023-06-28 12:27:42.771
98.0, -233.4239857844077, -312.0048937033862, -224.12472454458475, -234.40757947275415, -0.01600000075995922, -0.03200000151991844, 1.008000047877431, 0.0, 0.0, 0.0, 0.0, 0.0, 1.687922862771731E9, 0.0, 2023-06-28 12:27:42.771
99.0, -269.3644243585877, -321.65383558906615, -117.37302020937204, -148.6441936888732, -0.01600000075995922, -0.03200000151991844, 1.008000047877431, 0.0, 0.0, 0.0, 0.0, 0.0, 1.6879228627723663E9, 0.0, 2023-06-28 12:27:42.772
99.0, -166.19180428097025, -220.68775648530573, -47.238676340319216, -84.90507874405012, -0.01600000075995922, -0.03200000151991844, 1.008000047877431, 0.0, 0.0, 0.0, 0.0, 0.0, 1.6879228627723663E9, 0.0, 2023-06-28 12:27:42.772
100.0, -220.1996995410882, -269.3812539083883, -203.0616079941392, -211.2351593472995, -0.01600000075995922, -0.03200000151991844, 0.9920000471174717, 0.0, 0.0, 0.0, 0.0, 0.0, 1.6879228627868488E9, 0.0, 2023-06-28 12:27:42.786
100.0, -291.06706380145624, -337.85134229715914, -182.68663303554058, -210.13562876032665, -0.01600000075995922, -0.03200000151991844, 0.9920000471174717, 0.0, 0.0, 0.0, 0.0, 0.0, 1.6879228627868488E9, 0.0, 2023-06-28 12:27:42.786
0.0, -176.69531330652535, -247.98902616184205, -42.55071174586192, -82.26844927528873, -0.01600000075995922, -0.03200000151991844, 0.9920000471174717, 0.0, 0.0, 0.0, 0.0, 0.0, 1.6879228627875533E9, 0.0, 2023-06-28 12:27:42.787
1.0, -140.53796053491533, -216.1437780391425, -131.98293938627467, -152.32425524527207, -0.01600000075995922, -0.04800000227987766, 0.9920000471174717, 0.0, 0.0, 0.0, 0.0, 0.0, 1.6879228628010132E9, 0.0, 2023-06-28 12:27:42.801
1.0, -269.8973601022735, -349.77040345594287, -217.26013817591593, -232.70592499291524, -0.01600000075995922, -0.04800000227987766, 0.9920000471174717, 0.0, 0.0, 0.0, 0.0, 0.0, 1.6879228628010132E9, 0.0, 2023-06-28 12:27:42.801
2.0, -237.76413968298584, -284.82330082543194, -79.36628690967336, -112.15024992125109, -0.01600000075995922, -0.04800000227987766, 0.9920000471174717, 0.0, 0.0, 0.0, 0.0, 0.0, 1.6879228628330681E9, 0.0, 2023-06-28 12:27:42.833
2.0, -153.98290087562054, -185.51399740204215, -73.88359357463196, -104.98460160614923, -0.01600000075995922, -0.04800000227987766, 0.9920000471174717, 0.0, 0.0, 0.0, 0.0, 0.0, 1.6879228628330681E9, 0.0, 2023-06-28 12:27:42.833
3.0, -263.1356209823862, -321.2723657935858, -235.2041781633161, -242.0594147820957, -0.01600000075995922, -0.04800000227987766, 0.9920000471174717, 0.0, 0.0, 0.0, 0.0, 0.0, 1.6879228628337724E9, 0.0, 2023-06-28 12:27:42.833
3.0, -250.4124813331291, -326.1978140352294, -127.00139264529571, -152.37287394469604, -0.01600000075995922, -0.04800000227987766, 0.9920000471174717, 0.0, 0.0, 0.0, 0.0, 0.0, 1.6879228628337724E9, 0.0, 2023-06-28 12:27:42.833
4.0, -141.64123102184385, -203.66373188700527, -43.840977230574936, -77.80300872819498, -0.01600000075995922, -0.04800000227987766, 0.9920000471174717, 0.0, 0.0, 0.0, 0.0, 0.0, 1.6879228628344939E9, 0.0, 2023-06-28 12:27:42.834
4.0, -187.42882617935538, -254.84426278062165, -192.1093109739013, -199.43203508714214, -0.01600000075995922, -0.04800000227987766, 0.9920000471174717, 0.0, 0.0, 0.0, 0.0, 0.0, 1.6879228628344939E9, 0.0, 2023-06-28 12:27:42.834
5.0, -277.1752054160461, -332.4247474614531, -172.26540180901065, -193.82592505356297, -0.01600000075995922, -0.04800000227987766, 0.9920000471174717, 0.0, 0.0, 0.0, 0.0, 0.0, 1.6879228628352606E9, 0.0, 2023-06-28 12:27:42.835
5.0, -198.6111270468682, -257.9408999439329, -40.11977677466348, -78.4612311203964, -0.01600000075995922, -0.04800000227987766, 0.9920000471174717, 0.0, 0.0, 0.0, 0.0, 0.0, 1.6879228628352606E9, 0.0, 2023-06-28 12:27:42.835
6.0, -184.58276231307536, -231.41378955822438, -142.46587896207348, -159.29916866263375, -0.01600000075995922, -0.04800000227987766, 0.9920000471174717, 0.0, 0.0, 0.0, 0.0, 0.0, 1.687922862846048E9, 0.0, 2023-06-28 12:27:42.846
6.0, -257.76512464601547, -314.9182757688686, -221.1982528292574, -233.5735817826353, -0.01600000075995922, -0.04800000227987766, 0.9920000471174717, 0.0, 0.0, 0.0, 0.0, 0.0, 1.687922862846048E9, 0.0, 2023-06-28 12:27:42.846
7.0, -219.07959950435907, -288.2490491848439, -71.23200450604782, -104.61435151053593, -0.01600000075995922, -0.04800000227987766, 0.9920000471174717, 0.0, 0.0, 0.0, 0.0, 0.0, 1.6879228628609812E9, 0.0, 2023-06-28 12:27:42.860
7.0, -139.07565965224057, -210.36937250755727, -70.28954971721396, -97.29536729725078, -0.01600000075995922, -0.04800000227987766, 0.9920000471174717, 0.0, 0.0, 0.0, 0.0, 0.0, 1.6879228628609812E9, 0.0, 2023-06-28 12:27:42.860
8.0, -227.46819510497153, -307.06074596196413, -224.31732939230278, -234.52725627133623, -0.01600000075995922, -0.04800000227987766, 0.9920000471174717, 0.0, 0.0, 0.0, 0.0, 0.0, 1.687922862876731E9, 0.0, 2023-06-28 12:27:42.876
8.0, -270.63038049358875, -325.62186944205314, -132.60750267887488, -159.76665615709499, -0.01600000075995922, -0.04800000227987766, 0.9920000471174717, 0.0, 0.0, 0.0, 0.0, 0.0, 1.687922862876731E9, 0.0, 2023-06-28 12:27:42.876
9.0, -155.28438606020063, -217.49762182310224, -40.46010767063126, -78.20691792340949, -0.01600000075995922, -0.04800000227987766, 0.9920000471174717, 0.0, 0.0, 0.0, 0.0, 0.0, 1.687922862877414E9, 0.0, 2023-06-28 12:27:42.877
9.0, -214.75627515558153, -244.12196960765868, -190.8078257893212, -201.1935279662721, -0.01600000075995922, -0.04800000227987766, 0.9920000471174717, 0.0, 0.0, 0.0, 0.0, 0.0, 1.687922862877414E9, 0.0, 2023-06-28 12:27:42.877
10.0, -287.1719579976052, -332.4247474614531, -181.04294700501487, -203.0784375439398, -0.01600000075995922, -0.04800000227987766, 0.9920000471174717, 0.0, 0.0, 0.0, 0.0, 0.0, 1.687922862891001E9, 0.0, 2023-06-28 12:27:42.891
10.0, -177.54053069651127, -266.49031124264, -42.84616384236142, -83.22960356390104, -0.01600000075995922, -0.04800000227987766, 0.9920000471174717, 0.0, 0.0, 0.0, 0.0, 0.0, 1.687922862891001E9, 0.0, 2023-06-28 12:27:42.891
11.0, -142.57246611081064, -230.13474377337843, -130.748772400897, -150.44308556756005, -0.01600000075995922, -0.04800000227987766, 0.9920000471174717, 0.0, 0.0, 0.0, 0.0, 0.0, 1.687922862906754E9, 0.0, 2023-06-28 12:27:42.906
11.0, -280.6794916745275, -348.1959055745974, -223.78252369863912, -233.03877608897164, -0.01600000075995922, -0.04800000227987766, 0.9920000471174717, 0.0, 0.0, 0.0, 0.0, 0.0, 1.687922862906754E9, 0.0, 2023-06-28 12:27:42.906
12.0, -231.00614046305418, -282.92343164794147, -73.74895717622712, -107.77830687304959, -0.01600000075995922, -0.04800000227987766, 0.9920000471174717, 0.0, 0.0, 0.0, 0.0, 0.0, 1.6879228629074123E9, 0.0, 2023-06-28 12:27:42.907
12.0, -147.78962654899806, -188.15436677075922, -67.86983444588259, -100.45932265976444, -0.01600000075995922, -0.04800000227987766, 0.9920000471174717, 0.0, 0.0, 0.0, 0.0, 0.0, 1.6879228629074123E9, 0.0, 2023-06-28 12:27:42.907
13.0, -227.04932630993426, -282.4260249538347, -220.79808353399858, -228.87626743828878, -0.01600000075995922, -0.04800000227987766, 0.9920000471174717, 0.0, 0.0, 0.0, 0.0, 0.0, 1.6879228629373777E9, 0.0, 2023-06-28 12:27:42.937
13.0, -283.55921464040875, -321.51171939074993, -126.88171584671363, -155.59292780654505, -0.01600000075995922, -0.04800000227987766, 0.9920000471174717, 0.0, 0.0, 0.0, 0.0, 0.0, 1.6879228629373777E9, 0.0, 2023-06-28 12:27:42.937
14.0, -187.69809897616506, -236.76932629477233, -49.088056868407875, -85.15565204108134, -0.01600000075995922, -0.04800000227987766, 0.9920000471174717, 0.0, 0.0, 0.0, 0.0, 0.0, 1.6879228629381075E9, 0.0, 2023-06-28 12:27:42.938
14.0, -177.91078079212457, -264.4296263670549, -195.43782193446532, -206.6687415014021, -0.01600000075995922, -0.04800000227987766, 0.9920000471174717, 0.0, 0.0, 0.0, 0.0, 0.0, 1.6879228629381075E9, 0.0, 2023-06-28 12:27:42.938
15.0, -270.0132970008999, -358.37217335402966, -189.97756799915805, -207.66355488961563, -0.01600000075995922, -0.04800000227987766, 0.9920000471174717, 0.0, 0.0, 0.0, 0.0, 0.0, 1.6879228629388163E9, 0.0, 2023-06-28 12:27:42.938
15.0, -195.52196968346834, -235.50898000970483, -36.85858401330188, -81.33721418632194, -0.01600000075995922, -0.04800000227987766, 0.9920000471174717, 0.0, 0.0, 0.0, 0.0, 0.0, 1.6879228629388163E9, 0.0, 2023-06-28 12:27:42.938
16.0, -163.12321636732668, -217.1011924277991, -129.1892341193743, -157.89296627929434, -0.01600000075995922, -0.04800000227987766, 0.9920000471174717, 0.0, 0.0, 0.0, 0.0, 0.0, 1.6879228629509835E9, 0.0, 2023-06-28 12:27:42.950
16.0, -285.04021502286196, -329.567463895306, -219.29838365176693, -237.30226203845814, -0.01600000075995922, -0.04800000227987766, 0.9920000471174717, 0.0, 0.0, 0.0, 0.0, 0.0, 1.6879228629509835E9, 0.0, 2023-06-28 12:27:42.950
17.0, -254.74328548181802, -298.22710226662457, -85.77647543372586, -123.88231608225033, -0.01600000075995922, -0.04800000227987766, 0.9920000471174717, 0.0, 0.0, 0.0, 0.0, 0.0, 1.6879228629667351E9, 0.0, 2023-06-28 12:27:42.966
17.0, -157.3675103355199, -208.51812202949077, -74.39221996860579, -108.24953426746652, -0.01600000075995922, -0.04800000227987766, 0.9920000471174717, 0.0, 0.0, 0.0, 0.0, 0.0, 1.6879228629667351E9, 0.0, 2023-06-28 12:27:42.966
18.0, -252.51804500818253, -308.4033700460568, -233.1247937879525, -240.3166214027442, -0.01600000075995922, -0.04800000227987766, 0.9920000471174717, 0.0, 0.0, 0.0, 0.0, 0.0, 1.6879228629673505E9, 0.0, 2023-06-28 12:27:42.967
18.0, -293.144578226842, -327.36092292144895, -138.80077700549737, -167.42223136639223, -0.01600000075995922, -0.04800000227987766, 0.9920000471174717, 0.0, 0.0, 0.0, 0.0, 0.0, 1.6879228629673505E9, 0.0, 2023-06-28 12:27:42.967
19.0, -164.29380505345762, -240.28109235316515, -45.60994990961626, -84.89385904418305, -0.01600000075995922, -0.04800000227987766, 0.9920000471174717, 0.0, 0.0, 0.0, 0.0, 0.0, 1.6879228629811325E9, 0.0, 2023-06-28 12:27:42.981
19.0, -173.03021134994924, -264.7101188637316, -198.17168880207464, -210.01595196174458, -0.01600000075995922, -0.04800000227987766, 0.9920000471174717, 0.0, 0.0, 0.0, 0.0, 0.0, 1.6879228629811325E9, 0.0, 2023-06-28 12:27:42.981
20.0, -271.73739088047296, -343.5397301297635, -182.0265406933613, -203.65438213711604, -0.01600000075995922, -0.04800000227987766, 0.9920000471174717, 0.0, 0.0, 0.0, 0.0, 0.0, 1.6879228629967642E9, 0.0, 2023-06-28 12:27:42.996
20.0, -204.8418003730476, -263.4198533790186, -49.64530196180567, -87.70252391090617, -0.01600000075995922, -0.04800000227987766, 0.9920000471174717, 0.0, 0.0, 0.0, 0.0, 0.0, 1.6879228629967642E9, 0.0, 2023-06-28 12:27:42.996
21.0, -160.9652940928936, -200.0958673292771, -127.27066544210538, -145.76447072299197, -0.01600000075995922, -0.03200000151991844, 0.9920000471174717, 0.0, 0.0, 0.0, 0.0, 0.0, 1.6879228629974203E9, 0.0, 2023-06-28 12:27:42.997
21.0, -291.83187334239483, -329.0513577014208, -230.6452401173301, -243.67505156295374, -0.01600000075995922, -0.03200000151991844, 0.9920000471174717, 0.0, 0.0, 0.0, 0.0, 0.0, 1.6879228629974203E9, 0.0, 2023-06-28 12:27:42.997
22.0, -248.2695186585188, -300.1718502435833, -82.6125200712122, -117.27017296059057, -0.01600000075995922, -0.03200000151991844, 0.9920000471174717, 0.0, 0.0, 0.0, 0.0, 0.0, 1.6879228630110905E9, 0.0, 2023-06-28 12:27:43.011
22.0, -192.76940331608057, -225.18685613200068, -82.15251237666234, -114.28947269590572, -0.01600000075995922, -0.03200000151991844, 0.9920000471174717, 0.0, 0.0, 0.0, 0.0, 0.0, 1.6879228630110905E9, 0.0, 2023-06-28 12:27:43.011
23.0, -260.8954209089279, -310.0377063266933, -243.63765256339684, -249.85710618970916, -0.01600000075995922, -0.03200000151991844, 0.9920000471174717, 0.0, 0.0, 0.0, 0.0, 0.0, 1.6879228630267358E9, 0.0, 2023-06-28 12:27:43.026
23.0, -248.3779757572338, -325.0795839484781, -131.46309329243377, -163.12134641734883, -0.01600000075995922, -0.03200000151991844, 0.9920000471174717, 0.0, 0.0, 0.0, 0.0, 0.0, 1.6879228630267358E9, 0.0, 2023-06-28 12:27:43.026
24.0, -151.43228910584003, -239.0020465683192, -34.29675254365429, -77.57861473085359, -0.01600000075995922, -0.03200000151991844, 0.9920000471174717, 0.0, 0.0, 0.0, 0.0, 0.0, 1.687922863027423E9, 0.0, 2023-06-28 12:27:43.027
24.0, -197.21988426335156, -247.94788726232946, -189.83171190088615, -202.1172832553275, -0.01600000075995922, -0.03200000151991844, 0.9920000471174717, 0.0, 0.0, 0.0, 0.0, 0.0, 1.687922863027423E9, 0.0, 2023-06-28 12:27:43.027
25.0, -301.16666363179684, -332.42848736140877, -188.6312040151097, -204.61179652577266, -0.01600000075995922, -0.03200000151991844, 0.9920000471174717, 0.0, 0.0, 0.0, 0.0, 0.0, 1.6879228630410433E9, 0.0, 2023-06-28 12:27:43.041
25.0, -213.4323505712673, -259.51165792532265, -46.58606379805133, -84.3927124501206, -0.01600000075995922, -0.03200000151991844, 0.9920000471174717, 0.0, 0.0, 0.0, 0.0, 0.0, 1.6879228630410433E9, 0.0, 2023-06-28 12:27:43.041
26.0, -169.53714479133487, -224.2930200425908, -130.47575970413163, -156.59896089462563, -0.01600000075995922, -0.03200000151991844, 0.9920000471174717, 0.0, 0.0, 0.0, 0.0, 0.0, 1.687922863056723E9, 0.0, 2023-06-28 12:27:43.056
26.0, -296.9480564817786, -338.3936277907342, -235.55946865910664, -248.8061943021603, -0.01600000075995922, -0.03200000151991844, 0.9920000471174717, 0.0, 0.0, 0.0, 0.0, 0.0, 1.687922863056723E9, 0.0, 2023-06-28 12:27:43.056
27.0, -248.81180415209383, -308.0779987499118, -87.20511721679941, -123.7065407843329, -0.01600000075995922, -0.03200000151991844, 0.9920000471174717, 0.0, 0.0, 0.0, 0.0, 0.0, 1.687922863057328E9, 0.0, 2023-06-28 12:27:43.057
27.0, -138.74654845613986, -206.40881845448166, -70.94403220945969, -108.07749886950478, -0.01600000075995922, -0.03200000151991844, 0.9920000471174717, 0.0, 0.0, 0.0, 0.0, 0.0, 1.687922863057328E9, 0.0, 2023-06-28 12:27:43.057
28.0, -216.25971493776888, -295.41469749994576, -223.74886459903792, -229.96457832539454, -0.01600000075995922, -0.03200000151991844, 0.9920000471174717, 0.0, 0.0, 0.0, 0.0, 0.0, 1.6879228630710151E9, 0.0, 2023-06-28 12:27:43.071
28.0, -261.1684336056933, -308.3734508464113, -126.91537494631484, -157.99020367814228, -0.01600000075995922, -0.03200000151991844, 0.9920000471174717, 0.0, 0.0, 0.0, 0.0, 0.0, 1.6879228630710151E9, 0.0, 2023-06-28 12:27:43.071
29.0, -179.50023827329278, -236.34671759977937, -43.081777539569885, -78.28919572243467, -0.01600000075995922, -0.03200000151991844, 0.9920000471174717, 0.0, 0.0, 0.0, 0.0, 0.0, 1.687922863086728E9, 0.0, 2023-06-28 12:27:43.086
29.0, -214.16163106262684, -269.2428776100278, -196.90012281714007, -206.21247370680794, -0.01600000075995922, -0.03200000151991844, 0.9920000471174717, 0.0, 0.0, 0.0, 0.0, 0.0, 1.687922863086728E9, 0.0, 2023-06-28 12:27:43.086
30.0, -298.79556705988944, -324.46250045578927, -188.28339331923053, -208.6022697784938, -0.01600000075995922, -0.03200000151991844, 0.9920000471174717, 0.0, 0.0, 0.0, 0.0, 0.0, 1.6879228630873363E9, 0.0, 2023-06-28 12:27:43.087
30.0, -212.60209278110415, -246.62770257797092, -49.103016468230635, -90.05866088299081, -0.01600000075995922, -0.03200000151991844, 0.9920000471174717, 0.0, 0.0, 0.0, 0.0, 0.0, 1.6879228630873363E9, 0.0, 2023-06-28 12:27:43.087
31.0, -144.6256711864844, -217.4789223233238, -125.13892246736214, -147.18937260610983, -0.01600000075995922, -0.03200000151991844, 0.9920000471174717, 0.0, 0.0, 0.0, 0.0, 0.0, 1.6879228631010056E9, 0.0, 2023-06-28 12:27:43.101
31.0, -262.8252092860639, -306.9186297636479, -223.37487460346892, -236.63281994638965, -0.01600000075995922, -0.03200000151991844, 0.9920000471174717, 0.0, 0.0, 0.0, 0.0, 0.0, 1.6879228631010056E9, 0.0, 2023-06-28 12:27:43.101
32.0, -253.72229279391468, -316.2309806533158, -87.33975361520424, -123.85987668251619, -0.01600000075995922, -0.03200000151991844, 0.9920000471174717, 0.0, 0.0, 0.0, 0.0, 0.0, 1.6879228631166697E9, 0.0, 2023-06-28 12:27:43.116
32.0, -163.88241605833173, -230.2207614723593, -79.73653700528666, -106.14771049236879, -0.01600000075995922, -0.03200000151991844, 0.9920000471174717, 0.0, 0.0, 0.0, 0.0, 0.0, 1.6879228631166697E9, 0.0, 2023-06-28 12:27:43.116
33.0, -263.4647321784869, -318.5571984257549, -242.5044628768228, -248.061954210978, -0.01600000075995922, -0.03200000151991844, 0.9920000471174717, 0.0, 0.0, 0.0, 0.0, 0.0, 1.6879228631174116E9, 0.0, 2023-06-28 12:27:43.117
33.0, -279.37800648994744, -305.26933388318866, -139.58989589614794, -168.82469384977594, -0.01600000075995922, -0.03200000151991844, 0.9920000471174717, 0.0, 0.0, 0.0, 0.0, 0.0, 1.6879228631174116E9, 0.0, 2023-06-28 12:27:43.117
34.0, -163.51590586267412, -213.79138096701354, -34.34537124307826, -76.8306347397156, -0.01600000075995922, -0.03200000151991844, 0.9920000471174717, 0.0, 0.0, 0.0, 0.0, 0.0, 1.6879228631310475E9, 0.0, 2023-06-28 12:27:43.131
34.0, -182.8998073330149, -257.7875640457496, -190.48993429308757, -201.01775266835466, -0.01600000075995922, -0.03200000151991844, 0.9920000471174717, 0.0, 0.0, 0.0, 0.0, 0.0, 1.6879228631310475E9, 0.0, 2023-06-28 12:27:43.131
35.0, -296.41325078811496, -341.1985527575016, -195.2919658361934, -211.20524014765397, -0.01600000075995922, -0.03200000151991844, 0.9920000471174717, 0.0, 0.0, 0.0, 0.0, 0.0, 1.6879228631632123E9, 0.0, 2023-06-28 12:27:43.163
35.0, -229.91034977603704, -262.6494339881465, -49.37228926504031, -86.66283172322437, -0.01600000075995922, -0.03200000151991844, 0.9920000471174717, 0.0, 0.0, 0.0, 0.0, 0.0, 1.6879228631632123E9, 0.0, 2023-06-28 12:27:43.163
36.0, -162.37897627614439, -231.53346635680646, -132.38310868153349, -148.1580066946335, -0.01600000075995922, -0.03200000151991844, 0.9920000471174717, 0.0, 0.0, 0.0, 0.0, 0.0, 1.6879228631638312E9, 0.0, 2023-06-28 12:27:43.163
36.0, -289.5168752698228, -333.3821618501097, -235.29019586229697, -247.42243131855503, -0.01600000075995922, -0.03200000151991844, 0.9920000471174717, 0.0, 0.0, 0.0, 0.0, 0.0, 1.6879228631638312E9, 0.0, 2023-06-28 12:27:43.163
37.0, -286.07990721054375, -322.14002258330584, -98.1742437868379, -135.87617524014786, -0.01600000075995922, -0.03200000151991844, 0.9920000471174717, 0.0, 0.0, 0.0, 0.0, 0.0, 1.687922863164554E9, 0.0, 2023-06-28 12:27:43.164
37.0, -170.42350108083338, -222.23233516700566, -78.73050391720608, -109.33784515457228, -0.01600000075995922, -0.03200000151991844, 0.9920000471174717, 0.0, 0.0, 0.0, 0.0, 0.0, 1.687922863164554E9, 0.0, 2023-06-28 12:27:43.164
38.0, -221.18890307936817, -284.6550053274259, -226.45281226700172, -236.81981494417414, -0.01600000075995922, -0.03200000151991844, 0.9920000471174717, 0.0, 0.0, 0.0, 0.0, 0.0, 1.6879228631652703E9, 0.0, 2023-06-28 12:27:43.165
38.0, -270.8398148911074, -321.50049969088286, -134.91128105157986, -166.83132717339322, -0.01600000075995922, -0.03200000151991844, 0.9920000471174717, 0.0, 0.0, 0.0, 0.0, 0.0, 1.6879228631652703E9, 0.0, 2023-06-28 12:27:43.165
39.0, -176.51205820869654, -226.30882611870766, -33.552512452472, -77.17844543559477, -0.01600000075995922, -0.03200000151991844, 0.9920000471174717, 0.0, 0.0, 0.0, 0.0, 0.0, 1.687922863176194E9, 0.0, 2023-06-28 12:27:43.176
39.0, -206.22930325660855, -244.09205040801316, -194.38317014696077, -200.61010357318446, -0.01600000075995922, -0.03200000151991844, 0.9920000471174717, 0.0, 0.0, 0.0, 0.0, 0.0, 1.687922863176194E9, 0.0, 2023-06-28 12:27:43.176
40.0, -290.49672905821353, -341.1349744582549, -197.5546053093858, -214.5973294074647, -0.01600000075995922, -0.03200000151991844, 0.9920000471174717, 0.0, 0.0, 0.0, 0.0, 0.0, 1.6879228632074063E9, 0.0, 2023-06-28 12:27:43.207
40.0, -232.65917624346912, -261.17591340560466, -49.80611765990034, -93.66018454032019, -0.01600000075995922, -0.03200000151991844, 0.9920000471174717, 0.0, 0.0, 0.0, 0.0, 0.0, 1.6879228632074063E9, 0.0, 2023-06-28 12:27:43.207
41.0, -201.37491311412305, -226.68655601423234, -134.7542052534409, -151.65481315320358, -0.01600000075995922, -0.03200000151991844, 0.9920000471174717, 0.0, 0.0, 0.0, 0.0, 0.0, 1.687922863208119E9, 0.0, 2023-06-28 12:27:43.208
41.0, -265.8021696507931, -352.84460121952, -237.3508807378821, -246.12842593388632, -0.01600000075995922, -0.03200000151991844, 0.9920000471174717, 0.0, 0.0, 0.0, 0.0, 0.0, 1.687922863208119E9, 0.0, 2023-06-28 12:27:43.208
42.0, -237.01989959180355, -314.68266207166016, -89.79686788609251, -128.0410848329775, -0.01600000075995922, -0.03200000151991844, 0.9920000471174717, 0.0, 0.0, 0.0, 0.0, 0.0, 1.6879228632088535E9, 0.0, 2023-06-28 12:27:43.208
42.0, -160.8942359937355, -206.71549025084823, -70.03149662027135, -100.85201215511188, -0.01600000075995922, -0.03200000151991844, 0.9920000471174717, 0.0, 0.0, 0.0, 0.0, 0.0, 1.6879228632088535E9, 0.0, 2023-06-28 12:27:43.208
43.0, -245.65158868953586, -292.98002262879163, -235.66044595791027, -236.37476684944704, -0.01600000075995922, -0.03200000151991844, 0.9920000471174717, 0.0, 0.0, 0.0, 0.0, 0.0, 1.6879228632210853E9, 0.0, 2023-06-28 12:27:43.221
43.0, -301.8099264241755, -315.53909916151315, -142.55563656101003, -167.0258019710891, -0.01600000075995922, -0.03200000151991844, 0.9920000471174717, 0.0, 0.0, 0.0, 0.0, 0.0, 1.6879228632210853E9, 0.0, 2023-06-28 12:27:43.221
44.0, -201.71898391004652, -218.74674840830266, -40.72190066752955, -78.45375132048503, -0.01600000075995922, -0.03200000151991844, 0.9920000471174717, 0.0, 0.0, 0.0, 0.0, 0.0, 1.6879228632367437E9, 0.0, 2023-06-28 12:27:43.236
44.0, -207.59810664039105, -250.0422312375158, -193.2985991598107, -201.54133866215125, -0.01600000075995922, -0.03200000151991844, 0.9920000471174717, 0.0, 0.0, 0.0, 0.0, 0.0, 1.6879228632367437E9, 0.0, 2023-06-28 12:27:43.236
45.0, -317.0313192438334, -337.0173446070403, -201.447841163259, -217.5630700723268, -0.01600000075995922, -0.03200000151991844, 0.9920000471174717, 0.0, 0.0, 0.0, 0.0, 0.0, 1.687922863237358E9, 0.0, 2023-06-28 12:27:43.237
45.0, -216.26719473768026, -264.35856826789677, -52.08371673291549, -90.42891097860411, -0.01600000075995922, -0.03200000151991844, 0.9920000471174717, 0.0, 0.0, 0.0, 0.0, 0.0, 1.687922863237358E9, 0.0, 2023-06-28 12:27:43.237
46.0, -148.57126563973725, -235.02653291542083, -120.4116889233701, -142.8660482573323, -0.01600000075995922, -0.03200000151991844, 0.9920000471174717, 0.0, 0.0, 0.0, 0.0, 0.0, 1.687922863251013E9, 0.0, 2023-06-28 12:27:43.251
46.0, -266.2659172452986, -326.1491953358054, -228.7191916401498, -240.75418969755992, -0.01600000075995922, -0.03200000151991844, 0.9920000471174717, 0.0, 0.0, 0.0, 0.0, 0.0, 1.687922863251013E9, 0.0, 2023-06-28 12:27:43.251
47.0, -269.11198111157864, -291.86553244199604, -90.51866857754067, -126.11877625575289, -0.01600000075995922, -0.03200000151991844, 0.9920000471174717, 0.0, 0.0, 0.0, 0.0, 0.0, 1.687922863266798E9, 0.0, 2023-06-28 12:27:43.266
47.0, -179.68349337112159, -214.4383836593479, -71.55363590223715, -102.33675243752077, -0.01600000075995922, -0.03200000151991844, 0.9920000471174717, 0.0, 0.0, 0.0, 0.0, 0.0, 1.687922863266798E9, 0.0, 2023-06-28 12:27:43.266
48.0, -248.68464755360037, -288.2453092848882, -233.78301618015394, -237.70991113362834, -0.01600000075995922, -0.03200000151991844, 0.9920000471174717, 0.0, 0.0, 0.0, 0.0, 0.0, 1.6879228632673655E9, 0.0, 2023-06-28 12:27:43.267
48.0, -300.9908883338794, -315.56901836115867, -141.96473236801103, -164.59486699989066, -0.01600000075995922, -0.03200000151991844, 0.9920000471174717, 0.0, 0.0, 0.0, 0.0, 0.0, 1.6879228632673655E9, 0.0, 2023-06-28 12:27:43.267
49.0, -203.74226978607476, -214.70391655620188, -43.35105033637956, -82.4255250734277, -0.01600000075995922, -0.03200000151991844, 0.9920000471174717, 0.0, 0.0, 0.0, 0.0, 0.0, 1.6879228632809446E9, 0.0, 2023-06-28 12:27:43.280
49.0, -195.00212358962744, -259.1264482298866, -195.35554413544014, -202.1546822548844, -0.01600000075995922, -0.03200000151991844, 0.9920000471174717, 0.0, 0.0, 0.0, 0.0, 0.0, 1.6879228632809446E9, 0.0, 2023-06-28 12:27:43.280
50.0, -280.698191174306, -340.40195406693965, -198.818691494409, -213.84560951637104, -0.01600000075995922, -0.03200000151991844, 0.9920000471174717, 0.0, 0.0, 0.0, 0.0, 0.0, 1.6879228632967725E9, 0.0, 2023-06-28 12:27:43.296
50.0, -216.72346253227443, -267.7543974276632, -49.99685255764052, -92.24276245711371, -0.01600000075995922, -0.03200000151991844, 0.9920000471174717, 0.0, 0.0, 0.0, 0.0, 0.0, 1.6879228632967725E9, 0.0, 2023-06-28 12:27:43.296
51.0, -163.98713325709105, -224.13594424445182, -125.19502096669748, -144.5265638376586, -0.01600000075995922, -0.04800000227987766, 0.9920000471174717, 0.0, 0.0, 0.0, 0.0, 0.0, 1.6879228632974048E9, 0.0, 2023-06-28 12:27:43.297
51.0, -291.9552900409326, -330.4538201848045, -237.5378757356666, -245.96761023579165, -0.01600000075995922, -0.04800000227987766, 0.9920000471174717, 0.0, 0.0, 0.0, 0.0, 0.0, 1.6879228632974048E9, 0.0, 2023-06-28 12:27:43.297
52.0, -257.55569024849683, -287.90123848896474, -88.36074630310759, -120.1498959264718, -0.03200000151991844, -0.04800000227987766, 0.9920000471174717, 0.0, 0.0, 0.0, 0.0, 0.0, 1.6879228633109848E9, 0.0, 2023-06-28 12:27:43.310
52.0, -167.56995741464198, -208.38348563108593, -62.331042611505836, -95.14866472268477, -0.03200000151991844, -0.04800000227987766, 0.9920000471174717, 0.0, 0.0, 0.0, 0.0, 0.0, 1.6879228633109848E9, 0.0, 2023-06-28 12:27:43.310
53.0, -242.89902232214808, -290.23493606131524, -230.99679071316496, -237.8744667316787, -0.03200000151991844, -0.04800000227987766, 0.9920000471174717, 0.0, 0.0, 0.0, 0.0, 0.0, 1.6879228633268027E9, 0.0, 2023-06-28 12:27:43.326
53.0, -297.89425117056817, -337.03230420686305, -150.46926486724988, -176.74206205597147, -0.03200000151991844, -0.04800000227987766, 0.9920000471174717, 0.0, 0.0, 0.0, 0.0, 0.0, 1.6879228633268027E9, 0.0, 2023-06-28 12:27:43.326
54.0, -202.78111549746245, -246.72867987677455, -42.87982294196263, -80.26386289903894, -0.03200000151991844, -0.04800000227987766, 0.9920000471174717, 0.0, 0.0, 0.0, 0.0, 0.0, 1.687922863327457E9, 0.0, 2023-06-28 12:27:43.327
54.0, -218.93374340608716, -255.51370487269014, -194.68984194332734, -208.29185808217153, -0.03200000151991844, -0.04800000227987766, 0.9920000471174717, 0.0, 0.0, 0.0, 0.0, 0.0, 1.687922863327457E9, 0.0, 2023-06-28 12:27:43.327
55.0, -279.96891068294644, -362.56460120435804, -201.31694466480985, -218.21381266461685, -0.03200000151991844, -0.04800000227987766, 0.9920000471174717, 0.0, 0.0, 0.0, 0.0, 0.0, 1.6879228633409765E9, 0.0, 2023-06-28 12:27:43.340
55.0, -234.01302002742887, -264.5680026654154, -52.39786832919344, -92.60553275281563, -0.03200000151991844, -0.04800000227987766, 0.9920000471174717, 0.0, 0.0, 0.0, 0.0, 0.0, 1.6879228633409765E9, 0.0, 2023-06-28 12:27:43.340
56.0, -180.70822595898062, -204.40049217827618, -125.07160426815972, -144.0889955428429, -0.03200000151991844, -0.04800000227987766, 0.9920000471174717, 0.0, 0.0, 0.0, 0.0, 0.0, 1.6879228633567176E9, 0.0, 2023-06-28 12:27:43.356
56.0, -262.87756788544357, -314.1441164780408, -230.3123890212737, -239.96881070686504, -0.03200000151991844, -0.04800000227987766, 0.9920000471174717, 0.0, 0.0, 0.0, 0.0, 0.0, 1.6879228633567176E9, 0.0, 2023-06-28 12:27:43.356
57.0, -239.79864525888115, -289.2887413725257, -84.86767974449322, -118.85963044175878, -0.03200000151991844, -0.04800000227987766, 0.9920000471174717, 0.0, 0.0, 0.0, 0.0, 0.0, 1.6879228633573265E9, 0.0, 2023-06-28 12:27:43.357
57.0, -177.92948029190302, -203.94048448372632, -63.610088396351784, -98.74270858010277, -0.03200000151991844, -0.04800000227987766, 0.9920000471174717, 0.0, 0.0, 0.0, 0.0, 0.0, 1.6879228633573265E9, 0.0, 2023-06-28 12:27:43.357
58.0, -264.51938396599144, -298.41409726440907, -234.759130068589, -242.00331628276035, -0.03200000151991844, -0.04800000227987766, 0.9920000471174717, 0.0, 0.0, 0.0, 0.0, 0.0, 1.687922863371048E9, 0.0, 2023-06-28 12:27:43.371
58.0, -320.7450398998335, -343.85014182608575, -151.1611463590525, -176.77572115557268, -0.03200000151991844, -0.04800000227987766, 0.9920000471174717, 0.0, 0.0, 0.0, 0.0, 0.0, 1.687922863371048E9, 0.0, 2023-06-28 12:27:43.371
59.0, -223.04015355743468, -248.5649707550183, -56.1190687851049, -89.38547889096662, -0.03200000151991844, -0.04800000227987766, 0.9920000471174717, 0.0, 0.0, 0.0, 0.0, 0.0, 1.6879228633867316E9, 0.0, 2023-06-28 12:27:43.386
59.0, -179.28706397581846, -243.6320427134633, -190.02244679862633, -203.31405124114826, -0.03200000151991844, -0.04800000227987766, 0.9920000471174717, 0.0, 0.0, 0.0, 0.0, 0.0, 1.6879228633867316E9, 0.0, 2023-06-28 12:27:43.386
60.0, -285.5077025173232, -344.751457715407, -200.41562877548859, -220.20717934099957, -0.03200000151991844, -0.04800000227987766, 0.9920000471174717, 0.0, 0.0, 0.0, 0.0, 0.0, 1.6879228633873713E9, 0.0, 2023-06-28 12:27:43.387
60.0, -252.36844900995493, -285.2459095204249, -60.797683629672974, -96.05372051196173, -0.03200000151991844, -0.04800000227987766, 0.9920000471174717, 0.0, 0.0, 0.0, 0.0, 0.0, 1.6879228633873713E9, 0.0, 2023-06-28 12:27:43.387
61.0, -183.15038063004613, -227.61779110319912, -129.61184281436726, -153.52476313104853, -0.03200000151991844, -0.03200000151991844, 0.9920000471174717, 0.0, 0.0, 0.0, 0.0, 0.0, 1.6879228634337544E9, 0.0, 2023-06-28 12:27:43.433
61.0, -331.4224542733282, -358.70876435004175, -248.98196960007772, -253.90367794176564, -0.03200000151991844, -0.03200000151991844, 0.9920000471174717, 0.0, 0.0, 0.0, 0.0, 0.0, 1.6879228634337544E9, 0.0, 2023-06-28 12:27:43.433
62.0, -292.85660593025386, -330.0536508895457, -105.68770279781893, -136.54935723217204, -0.03200000151991844, -0.03200000151991844, 0.9920000471174717, 0.0, 0.0, 0.0, 0.0, 0.0, 1.6879228634345503E9, 0.0, 2023-06-28 12:27:43.434
