c00,c01,c02,c03,c04,c05,c06,c07,c08,c09,c10,c11,c12,c13,c14,c15,c16,c17,c18,c19,c20,c21,c22,c23,c24,c25,c26,c27,c28,c29,c30,c31,c32,c33,c34,c35,c36,c37,c38,c39,c40,c41,c42,c43,c44,c45,c46,c47,c48,c49,c50,c51,c52,c53,c54,c55,c56,c57,c58,c59,c60,c61,c62,c63,c64,c65,c66,c67,c68,c69,c70,c71,c72,c73,c74,c75,c76,c77,c78,c79,c80,c81,c82,c83,c84,c85,c86,c87,c88,c89,c90,c91,c92,c93,c94,c95,c96,c97,c98,c99
%OpenBCI Raw EXG Data,,,,,,,,,,,,,,,,,,,,,,,,,,,,,,,,,,,,,,,,,,,,,,,,,,,,,,,,,,,,,,,,,,,,,,,,,,,,,,,,,,,,,,,,,,,,,,,,,,,
%Number of channels = 8,,,,,,,,,,,,,,,,,,,,,,,,,,,,,,,,,,,,,,,,,,,,,,,,,,,,,,,,,,,,,,,,,,,,,,,,,,,,,,,,,,,,,,,,,,,,,,,,,,,
%Sample Rate = 250 Hz,,,,,,,,,,,,,,,,,,,,,,,,,,,,,,,,,,,,,,,,,,,,,,,,,,,,,,,,,,,,,,,,,,,,,,,,,,,,,,,,,,,,,,,,,,,,,,,,,,,
%Board = OpenBCI_GUI$BoardCytonSerial,,,,,,,,,,,,,,,,,,,,,,,,,,,,,,,,,,,,,,,,,,,,,,,,,,,,,,,,,,,,,,,,,,,,,,,,,,,,,,,,,,,,,,,,,,,,,,,,,,,
Sample Index, EXG Channel 0, EXG Channel 1, EXG Channel 2, EXG Channel 3, EXG Channel 4, EXG Channel 5, EXG Channel 6, EXG Channel 7, Accel Channel 0, Accel Channel 1, Accel Channel 2, Other, Other, Other, Other, Other, Other, Other, Analog Channel 0, Analog Channel 1, Analog Channel 2, Timestamp, Other, Timestamp (Formatted),,,,,,,,,,,,,,,,,,,,,,,,,,,,,,,,,,,,,,,,,,,,,,,,,,,,,,,,,,,,,,,,,,,,,,,,,,,
0.0, -187500.02235174447, 92418.22718599168, -187500.02235174447, -187500.02235174447, -187500.02235174447, 44740.95043432122, -187500.02235174447, -187500.02235174447, 0.02, 0.494, 0.082, 192.0, 0.0, 160.0, 15.0, 112.0, 2.0, 144.0, 0.0, 0.0, 0.0, 1.6963224032314188E9, 0.0, 2023-10-03 17:40:03.231,,,,,,,,,,,,,,,,,,,,,,,,,,,,,,,,,,,,,,,,,,,,,,,,,,,,,,,,,,,,,,,,,,,,,,,,,,,
1.0, -187500.02235174447, 85241.30555883714, -187500.02235174447, -187500.02235174447, -187500.02235174447, 41553.32345406097, -187500.02235174447, -187500.02235174447, 0.02, 0.494, 0.082, 192.0, 0.0, 0.0, 0.0, 0.0, 0.0, 0.0, 0.0, 0.0, 0.0, 1.6963224037116337E9, 0.0, 2023-10-03 17:40:03.711,,,,,,,,,,,,,,,,,,,,,,,,,,,,,,,,,,,,,,,,,,,,,,,,,,,,,,,,,,,,,,,,,,,,,,,,,,,
2.0, -187500.02235174447, 71088.11391450334, -187500.02235174447, -187500.02235174447, -187500.02235174447, 35270.78452954108, -187500.02235174447, -187500.02235174447, 0.02, 0.494, 0.082, 192.0, 0.0, 0.0, 0.0, 0.0, 0.0, 0.0, 0.0, 0.0, 0.0, 1.696322403711704E9, 0.0, 2023-10-03 17:40:03.711,,,,,,,,,,,,,,,,,,,,,,,,,,,,,,,,,,,,,,,,,,,,,,,,,,,,,,,,,,,,,,,,,,,,,,,,,,,
3.0, -187500.02235174447, 75328.57511384191, -187500.02235174447, -187500.02235174447, -187500.02235174447, 37816.78233346729, -187500.02235174447, -187500.02235174447, 0.02, 0.494, 0.082, 192.0, 0.0, 0.0, 0.0, 0.0, 0.0, 0.0, 0.0, 0.0, 0.0, 1.6963224037117472E9, 0.0, 2023-10-03 17:40:03.711,,,,,,,,,,,,,,,,,,,,,,,,,,,,,,,,,,,,,,,,,,,,,,,,,,,,,,,,,,,,,,,,,,,,,,,,,,,
4.0, -187500.02235174447, 90492.22206976678, -187500.02235174447, -187500.02235174447, -187500.02235174447, 45104.09922648659, -187500.02235174447, -187500.02235174447, 0.02, 0.494, 0.082, 192.0, 0.0, 0.0, 0.0, 0.0, 0.0, 0.0, 0.0, 0.0, 0.0, 1.6963224037117887E9, 0.0, 2023-10-03 17:40:03.711,,,,,,,,,,,,,,,,,,,,,,,,,,,,,,,,,,,,,,,,,,,,,,,,,,,,,,,,,,,,,,,,,,,,,,,,,,,
5.0, -187500.02235174447, 87300.01298189319, -187500.02235174447, -187500.02235174447, -187500.02235174447, 43741.313367046525, -187500.02235174447, -187500.02235174447, 0.02, 0.494, 0.082, 192.0, 0.0, 0.0, 0.0, 0.0, 0.0, 0.0, 0.0, 0.0, 0.0, 1.6963224037118104E9, 0.0, 2023-10-03 17:40:03.711,,,,,,,,,,,,,,,,,,,,,,,,,,,,,,,,,,,,,,,,,,,,,,,,,,,,,,,,,,,,,,,,,,,,,,,,,,,
6.0, -187500.02235174447, 71813.80800173378, -187500.02235174447, -187500.02235174447, -187500.02235174447, 36795.06174267075, -187500.02235174447, -187500.02235174447, 0.02, 0.494, 0.082, 192.0, 0.0, 0.0, 0.0, 0.0, 0.0, 0.0, 0.0, 0.0, 0.0, 1.6963224037118297E9, 0.0, 2023-10-03 17:40:03.711,,,,,,,,,,,,,,,,,,,,,,,,,,,,,,,,,,,,,,,,,,,,,,,,,,,,,,,,,,,,,,,,,,,,,,,,,,,
7.0, -187500.02235174447, 72390.46065693625, -187500.02235174447, -187500.02235174447, -187500.02235174447, 37574.37766484948, -187500.02235174447, -187500.02235174447, 0.022, 0.736, 0.122, 192.0, 0.0, 176.0, 23.0, 0.0, 3.0, 208.0, 0.0, 0.0, 0.0, 1.6963224037118497E9, 0.0, 2023-10-03 17:40:03.711,,,,,,,,,,,,,,,,,,,,,,,,,,,,,,,,,,,,,,,,,,,,,,,,,,,,,,,,,,,,,,,,,,,,,,,,,,,
8.0, -187500.02235174447, 87760.95065605053, -187500.02235174447, -187500.02235174447, -187500.02235174447, 44993.368684455, -187500.02235174447, -187500.02235174447, 0.022, 0.736, 0.122, 192.0, 0.0, 0.0, 0.0, 0.0, 0.0, 0.0, 0.0, 0.0, 0.0, 1.6963224037118697E9, 0.0, 2023-10-03 17:40:03.711,,,,,,,,,,,,,,,,,,,,,,,,,,,,,,,,,,,,,,,,,,,,,,,,,,,,,,,,,,,,,,,,,,,,,,,,,,,
9.0, -187500.02235174447, 89025.94763349862, -187500.02235174447, -187500.02235174447, -187500.02235174447, 45683.67996021271, -187500.02235174447, -187500.02235174447, 0.022, 0.736, 0.122, 192.0, 0.0, 0.0, 0.0, 0.0, 0.0, 0.0, 0.0, 0.0, 0.0, 1.6963224037118888E9, 0.0, 2023-10-03 17:40:03.711,,,,,,,,,,,,,,,,,,,,,,,,,,,,,,,,,,,,,,,,,,,,,,,,,,,,,,,,,,,,,,,,,,,,,,,,,,,
10.0, -187500.02235174447, 73166.62498314679, -187500.02235174447, -187500.02235174447, -187500.02235174447, 38510.04403949309, -187500.02235174447, -187500.02235174447, 0.022, 0.736, 0.122, 192.0, 0.0, 0.0, 0.0, 0.0, 0.0, 0.0, 0.0, 0.0, 0.0, 1.6963224037119086E9, 0.0, 2023-10-03 17:40:03.711,,,,,,,,,,,,,,,,,,,,,,,,,,,,,,,,,,,,,,,,,,,,,,,,,,,,,,,,,,,,,,,,,,,,,,,,,,,
11.0, -187500.02235174447, 70003.89784620974, -187500.02235174447, -187500.02235174447, -187500.02235174447, 37461.501355350185, -187500.02235174447, -187500.02235174447, 0.022, 0.736, 0.122, 192.0, 0.0, 0.0, 0.0, 0.0, 0.0, 0.0, 0.0, 0.0, 0.0, 1.6963224037119284E9, 0.0, 2023-10-03 17:40:03.711,,,,,,,,,,,,,,,,,,,,,,,,,,,,,,,,,,,,,,,,,,,,,,,,,,,,,,,,,,,,,,,,,,,,,,,,,,,
12.0, -187500.02235174447, 84592.65793474411, -187500.02235174447, -187500.02235174447, -187500.02235174447, 44547.87606571628, -187500.02235174447, -187500.02235174447, 0.022, 0.736, 0.122, 192.0, 0.0, 0.0, 0.0, 0.0, 0.0, 0.0, 0.0, 0.0, 0.0, 1.6963224037119482E9, 0.0, 2023-10-03 17:40:03.711,,,,,,,,,,,,,,,,,,,,,,,,,,,,,,,,,,,,,,,,,,,,,,,,,,,,,,,,,,,,,,,,,,,,,,,,,,,
13.0, -187500.02235174447, 90056.38540463275, -187500.02235174447, -187500.02235174447, -187500.02235174447, 47152.81541977113, -187500.02235174447, -187500.02235174447, 0.022, 0.736, 0.122, 192.0, 0.0, 0.0, 0.0, 0.0, 0.0, 0.0, 0.0, 0.0, 0.0, 1.696322403711968E9, 0.0, 2023-10-03 17:40:03.711,,,,,,,,,,,,,,,,,,,,,,,,,,,,,,,,,,,,,,,,,,,,,,,,,,,,,,,,,,,,,,,,,,,,,,,,,,,
14.0, -187500.02235174447, 74898.63930924408, -187500.02235174447, -187500.02235174447, -187500.02235174447, 40259.87270592126, -187500.02235174447, -187500.02235174447, 0.022, 0.736, 0.122, 192.0, 0.0, 0.0, 0.0, 0.0, 0.0, 0.0, 0.0, 0.0, 0.0, 1.6963224037119873E9, 0.0, 2023-10-03 17:40:03.711,,,,,,,,,,,,,,,,,,,,,,,,,,,,,,,,,,,,,,,,,,,,,,,,,,,,,,,,,,,,,,,,,,,,,,,,,,,
15.0, -187500.02235174447, 68167.63498397291, -187500.02235174447, -187500.02235174447, -187500.02235174447, 37460.62963731642, -187500.02235174447, -187500.02235174447, 0.022, 0.736, 0.122, 192.0, 0.0, 0.0, 0.0, 0.0, 0.0, 0.0, 0.0, 0.0, 0.0, 1.6963224037120068E9, 0.0, 2023-10-03 17:40:03.712,,,,,,,,,,,,,,,,,,,,,,,,,,,,,,,,,,,,,,,,,,,,,,,,,,,,,,,,,,,,,,,,,,,,,,,,,,,
16.0, -187500.02235174447, 80952.74340543072, -187500.02235174447, -187500.02235174447, -187500.02235174447, 43741.20160832425, -187500.02235174447, -187500.02235174447, 0.014, 0.86, 0.134, 192.0, 0.0, 112.0, 26.0, 224.0, 4.0, 48.0, 0.0, 0.0, 0.0, 1.6963224037120268E9, 0.0, 2023-10-03 17:40:03.712,,,,,,,,,,,,,,,,,,,,,,,,,,,,,,,,,,,,,,,,,,,,,,,,,,,,,,,,,,,,,,,,,,,,,,,,,,,
17.0, -187500.02235174447, 90303.0145529526, -187500.02235174447, -187500.02235174447, -187500.02235174447, 48108.21838476877, -187500.02235174447, -187500.02235174447, 0.014, 0.86, 0.134, 192.0, 0.0, 0.0, 0.0, 0.0, 0.0, 0.0, 0.0, 0.0, 0.0, 1.6963224037120461E9, 0.0, 2023-10-03 17:40:03.712,,,,,,,,,,,,,,,,,,,,,,,,,,,,,,,,,,,,,,,,,,,,,,,,,,,,,,,,,,,,,,,,,,,,,,,,,,,
18.0, -187500.02235174447, 77041.29988447427, -187500.02235174447, -187500.02235174447, -187500.02235174447, 42032.45544820493, -187500.02235174447, -187500.02235174447, 0.014, 0.86, 0.134, 192.0, 0.0, 0.0, 0.0, 0.0, 0.0, 0.0, 0.0, 0.0, 0.0, 1.6963224037120664E9, 0.0, 2023-10-03 17:40:03.712,,,,,,,,,,,,,,,,,,,,,,,,,,,,,,,,,,,,,,,,,,,,,,,,,,,,,,,,,,,,,,,,,,,,,,,,,,,
19.0, -187500.02235174447, 66920.9887887226, -187500.02235174447, -187500.02235174447, -187500.02235174447, 37546.57209474708, -187500.02235174447, -187500.02235174447, 0.014, 0.86, 0.134, 192.0, 0.0, 0.0, 0.0, 0.0, 0.0, 0.0, 0.0, 0.0, 0.0, 1.696322403712086E9, 0.0, 2023-10-03 17:40:03.712,,,,,,,,,,,,,,,,,,,,,,,,,,,,,,,,,,,,,,,,,,,,,,,,,,,,,,,,,,,,,,,,,,,,,,,,,,,
20.0, -187500.02235174447, 77073.53109997882, -187500.02235174447, -187500.02235174447, -187500.02235174447, 42642.07692647898, -187500.02235174447, -187500.02235174447, 0.014, 0.86, 0.134, 192.0, 0.0, 0.0, 0.0, 0.0, 0.0, 0.0, 0.0, 0.0, 0.0, 1.696322403712106E9, 0.0, 2023-10-03 17:40:03.712,,,,,,,,,,,,,,,,,,,,,,,,,,,,,,,,,,,,,,,,,,,,,,,,,,,,,,,,,,,,,,,,,,,,,,,,,,,
21.0, -187500.02235174447, 89571.55371565267, -187500.02235174447, -187500.02235174447, -187500.02235174447, 48543.85388420271, -187500.02235174447, -187500.02235174447, 0.014, 0.86, 0.134, 192.0, 0.0, 0.0, 0.0, 0.0, 0.0, 0.0, 0.0, 0.0, 0.0, 1.6963224037121282E9, 0.0, 2023-10-03 17:40:03.712,,,,,,,,,,,,,,,,,,,,,,,,,,,,,,,,,,,,,,,,,,,,,,,,,,,,,,,,,,,,,,,,,,,,,,,,,,,
22.0, -187500.02235174447, 79188.31904987324, -187500.02235174447, -187500.02235174447, -187500.02235174447, 43806.80397830057, -187500.02235174447, -187500.02235174447, 0.014, 0.86, 0.134, 192.0, 0.0, 0.0, 0.0, 0.0, 0.0, 0.0, 0.0, 0.0, 0.0, 1.6963224037121477E9, 0.0, 2023-10-03 17:40:03.712,,,,,,,,,,,,,,,,,,,,,,,,,,,,,,,,,,,,,,,,,,,,,,,,,,,,,,,,,,,,,,,,,,,,,,,,,,,
23.0, -187500.02235174447, 66288.88145552653, -187500.02235174447, -187500.02235174447, -187500.02235174447, 37916.538168971325, -187500.02235174447, -187500.02235174447, 0.014, 0.86, 0.134, 192.0, 0.0, 0.0, 0.0, 0.0, 0.0, 0.0, 0.0, 0.0, 0.0, 1.6963224037121727E9, 0.0, 2023-10-03 17:40:03.712,,,,,,,,,,,,,,,,,,,,,,,,,,,,,,,,,,,,,,,,,,,,,,,,,,,,,,,,,,,,,,,,,,,,,,,,,,,
24.0, -187500.02235174447, 73317.02987158655, -187500.02235174447, -187500.02235174447, -187500.02235174447, 41523.03684032403, -187500.02235174447, -187500.02235174447, 0.014, 0.86, 0.134, 192.0, 0.0, 0.0, 0.0, 0.0, 0.0, 0.0, 0.0, 0.0, 0.0, 1.6963224037121923E9, 0.0, 2023-10-03 17:40:03.712,,,,,,,,,,,,,,,,,,,,,,,,,,,,,,,,,,,,,,,,,,,,,,,,,,,,,,,,,,,,,,,,,,,,,,,,,,,
25.0, -187500.02235174447, 87967.83840272886, -187500.02235174447, -187500.02235174447, -187500.02235174447, 48445.97559523292, -187500.02235174447, -187500.02235174447, 0.014, 0.86, 0.134, 192.0, 0.0, 0.0, 0.0, 0.0, 0.0, 0.0, 0.0, 0.0, 0.0, 1.6963224037122123E9, 0.0, 2023-10-03 17:40:03.712,,,,,,,,,,,,,,,,,,,,,,,,,,,,,,,,,,,,,,,,,,,,,,,,,,,,,,,,,,,,,,,,,,,,,,,,,,,
26.0, -187500.02235174447, 81331.67252918155, -187500.02235174447, -187500.02235174447, -187500.02235174447, 45378.35513095321, -187500.02235174447, -187500.02235174447, 0.008, 0.93, 0.136, 192.0, 0.0, 64.0, 29.0, 16.0, 4.0, 64.0, 0.0, 0.0, 0.0, 1.696322403712232E9, 0.0, 2023-10-03 17:40:03.712,,,,,,,,,,,,,,,,,,,,,,,,,,,,,,,,,,,,,,,,,,,,,,,,,,,,,,,,,,,,,,,,,,,,,,,,,,,
27.0, -187500.02235174447, 66341.36335150759, -187500.02235174447, -187500.02235174447, -187500.02235174447, 38415.630270913876, -187500.02235174447, -187500.02235174447, 0.008, 0.93, 0.136, 192.0, 0.0, 0.0, 0.0, 0.0, 0.0, 0.0, 0.0, 0.0, 0.0, 1.6963224037122517E9, 0.0, 2023-10-03 17:40:03.712,,,,,,,,,,,,,,,,,,,,,,,,,,,,,,,,,,,,,,,,,,,,,,,,,,,,,,,,,,,,,,,,,,,,,,,,,,,
28.0, -187500.02235174447, 69759.16859616859, -187500.02235174447, -187500.02235174447, -187500.02235174447, 40293.534433070956, -187500.02235174447, -187500.02235174447, 0.008, 0.93, 0.136, 192.0, 0.0, 0.0, 0.0, 0.0, 0.0, 0.0, 0.0, 0.0, 0.0, 1.696322403712271E9, 0.0, 2023-10-03 17:40:03.712,,,,,,,,,,,,,,,,,,,,,,,,,,,,,,,,,,,,,,,,,,,,,,,,,,,,,,,,,,,,,,,,,,,,,,,,,,,
29.0, -187500.02235174447, 85569.11624301867, -187500.02235174447, -187500.02235174447, -187500.02235174447, 47855.28604451252, -187500.02235174447, -187500.02235174447, 0.008, 0.93, 0.136, 192.0, 0.0, 0.0, 0.0, 0.0, 0.0, 0.0, 0.0, 0.0, 0.0, 1.6963224037122905E9, 0.0, 2023-10-03 17:40:03.712,,,,,,,,,,,,,,,,,,,,,,,,,,,,,,,,,,,,,,,,,,,,,,,,,,,,,,,,,,,,,,,,,,,,,,,,,,,
30.0, -187500.02235174447, 83274.46380549239, -187500.02235174447, -187500.02235174447, -187500.02235174447, 46846.261244566595, -187500.02235174447, -187500.02235174447, 0.008, 0.93, 0.136, 192.0, 0.0, 0.0, 0.0, 0.0, 0.0, 0.0, 0.0, 0.0, 0.0, 1.6963224037123098E9, 0.0, 2023-10-03 17:40:03.712,,,,,,,,,,,,,,,,,,,,,,,,,,,,,,,,,,,,,,,,,,,,,,,,,,,,,,,,,,,,,,,,,,,,,,,,,,,
31.0, -187500.02235174447, 67120.67927368633, -187500.02235174447, -187500.02235174447, -187500.02235174447, 39203.86453913028, -187500.02235174447, -187500.02235174447, 0.008, 0.93, 0.136, 192.0, 0.0, 0.0, 0.0, 0.0, 0.0, 0.0, 0.0, 0.0, 0.0, 1.6963224037123294E9, 0.0, 2023-10-03 17:40:03.712,,,,,,,,,,,,,,,,,,,,,,,,,,,,,,,,,,,,,,,,,,,,,,,,,,,,,,,,,,,,,,,,,,,,,,,,,,,
32.0, -187500.02235174447, 66875.95002364517, -187500.02235174447, -187500.02235174447, -187500.02235174447, 39203.37280075226, -187500.02235174447, -187500.02235174447, 0.008, 0.93, 0.136, 192.0, 0.0, 0.0, 0.0, 0.0, 0.0, 0.0, 0.0, 0.0, 0.0, 1.6963224037123475E9, 0.0, 2023-10-03 17:40:03.712,,,,,,,,,,,,,,,,,,,,,,,,,,,,,,,,,,,,,,,,,,,,,,,,,,,,,,,,,,,,,,,,,,,,,,,,,,,
33.0, -187500.02235174447, 82713.72559234209, -187500.02235174447, -187500.02235174447, -187500.02235174447, 46801.17777600024, -187500.02235174447, -187500.02235174447, 0.008, 0.93, 0.136, 192.0, 0.0, 0.0, 0.0, 0.0, 0.0, 0.0, 0.0, 0.0, 0.0, 1.6963224037123644E9, 0.0, 2023-10-03 17:40:03.712,,,,,,,,,,,,,,,,,,,,,,,,,,,,,,,,,,,,,,,,,,,,,,,,,,,,,,,,,,,,,,,,,,,,,,,,,,,
34.0, -187500.02235174447, 84973.17403235126, -187500.02235174447, -187500.02235174447, -187500.02235174447, 47953.343147437954, -187500.02235174447, -187500.02235174447, 0.008, 0.93, 0.136, 192.0, 0.0, 0.0, 0.0, 0.0, 0.0, 0.0, 0.0, 0.0, 0.0, 1.696322403712382E9, 0.0, 2023-10-03 17:40:03.712,,,,,,,,,,,,,,,,,,,,,,,,,,,,,,,,,,,,,,,,,,,,,,,,,,,,,,,,,,,,,,,,,,,,,,,,,,,
35.0, -187500.02235174447, 68619.9448847705, -187500.02235174447, -187500.02235174447, -187500.02235174447, 40221.87474034724, -187500.02235174447, -187500.02235174447, 0.008, 0.93, 0.136, 192.0, 0.0, 0.0, 0.0, 0.0, 0.0, 0.0, 0.0, 0.0, 0.0, 1.6963224037124002E9, 0.0, 2023-10-03 17:40:03.712,,,,,,,,,,,,,,,,,,,,,,,,,,,,,,,,,,,,,,,,,,,,,,,,,,,,,,,,,,,,,,,,,,,,,,,,,,,
36.0, -187500.02235174447, 64497.657358367134, -187500.02235174447, -187500.02235174447, -187500.02235174447, 38369.473918613665, -187500.02235174447, -187500.02235174447, 0.006, 0.9560000000000001, 0.128, 192.0, 0.0, 48.0, 29.0, 224.0, 4.0, 0.0, 0.0, 0.0, 0.0, 1.6963224037124195E9, 0.0, 2023-10-03 17:40:03.712,,,,,,,,,,,,,,,,,,,,,,,,,,,,,,,,,,,,,,,,,,,,,,,,,,,,,,,,,,,,,,,,,,,,,,,,,,,
37.0, -187500.02235174447, 79183.98281144892, -187500.02235174447, -187500.02235174447, -187500.02235174447, 45478.558001346355, -187500.02235174447, -187500.02235174447, 0.006, 0.9560000000000001, 0.128, 192.0, 0.0, 0.0, 0.0, 0.0, 0.0, 0.0, 0.0, 0.0, 0.0, 1.6963224037124383E9, 0.0, 2023-10-03 17:40:03.712,,,,,,,,,,,,,,,,,,,,,,,,,,,,,,,,,,,,,,,,,,,,,,,,,,,,,,,,,,,,,,,,,,,,,,,,,,,
38.0, -187500.02235174447, 85770.75132974998, -187500.02235174447, -187500.02235174447, -187500.02235174447, 48686.10038591628, -187500.02235174447, -187500.02235174447, 0.006, 0.9560000000000001, 0.128, 192.0, 0.0, 0.0, 0.0, 0.0, 0.0, 0.0, 0.0, 0.0, 0.0, 1.6963224037124553E9, 0.0, 2023-10-03 17:40:03.712,,,,,,,,,,,,,,,,,,,,,,,,,,,,,,,,,,,,,,,,,,,,,,,,,,,,,,,,,,,,,,,,,,,,,,,,,,,
39.0, -187500.02235174447, 70403.43527834836, -187500.02235174447, -187500.02235174447, -187500.02235174447, 41403.34324876586, -187500.02235174447, -187500.02235174447, 0.006, 0.9560000000000001, 0.128, 192.0, 0.0, 0.0, 0.0, 0.0, 0.0, 0.0, 0.0, 0.0, 0.0, 1.696322403712473E9, 0.0, 2023-10-03 17:40:03.712,,,,,,,,,,,,,,,,,,,,,,,,,,,,,,,,,,,,,,,,,,,,,,,,,,,,,,,,,,,,,,,,,,,,,,,,,,,
40.0, -187500.02235174447, 62668.770571800545, -187500.02235174447, -187500.02235174447, -187500.02235174447, 37664.90222989347, -187500.02235174447, -187500.02235174447, 0.006, 0.9560000000000001, 0.128, 192.0, 0.0, 0.0, 0.0, 0.0, 0.0, 0.0, 0.0, 0.0, 0.0, 1.6963224037124908E9, 0.0, 2023-10-03 17:40:03.712,,,,,,,,,,,,,,,,,,,,,,,,,,,,,,,,,,,,,,,,,,,,,,,,,,,,,,,,,,,,,,,,,,,,,,,,,,,
41.0, -187500.02235174447, 75347.4846896511, -187500.02235174447, -187500.02235174447, -187500.02235174447, 43770.14711739387, -187500.02235174447, -187500.02235174447, 0.006, 0.9560000000000001, 0.128, 192.0, 0.0, 0.0, 0.0, 0.0, 0.0, 0.0, 0.0, 0.0, 0.0, 1.696322403712509E9, 0.0, 2023-10-03 17:40:03.712,,,,,,,,,,,,,,,,,,,,,,,,,,,,,,,,,,,,,,,,,,,,,,,,,,,,,,,,,,,,,,,,,,,,,,,,,,,
42.0, -187500.02235174447, 85912.14846517426, -187500.02235174447, -187500.02235174447, -187500.02235174447, 48874.68205388571, -187500.02235174447, -187500.02235174447, 0.006, 0.9560000000000001, 0.128, 192.0, 0.0, 0.0, 0.0, 0.0, 0.0, 0.0, 0.0, 0.0, 0.0, 1.6963224037125268E9, 0.0, 2023-10-03 17:40:03.712,,,,,,,,,,,,,,,,,,,,,,,,,,,,,,,,,,,,,,,,,,,,,,,,,,,,,,,,,,,,,,,,,,,,,,,,,,,
43.0, -187500.02235174447, 72672.47261672886, -187500.02235174447, -187500.02235174447, -187500.02235174447, 42540.08591652941, -187500.02235174447, -187500.02235174447, 0.006, 0.9560000000000001, 0.128, 192.0, 0.0, 0.0, 0.0, 0.0, 0.0, 0.0, 0.0, 0.0, 0.0, 1.6963224037125444E9, 0.0, 2023-10-03 17:40:03.712,,,,,,,,,,,,,,,,,,,,,,,,,,,,,,,,,,,,,,,,,,,,,,,,,,,,,,,,,,,,,,,,,,,,,,,,,,,
44.0, -187500.02235174447, 61621.18901266921, -187500.02235174447, -187500.02235174447, -187500.02235174447, 37047.56939978235, -187500.02235174447, -187500.02235174447, 0.006, 0.9560000000000001, 0.128, 192.0, 0.0, 0.0, 0.0, 0.0, 0.0, 0.0, 0.0, 0.0, 0.0, 1.696322403712566E9, 0.0, 2023-10-03 17:40:03.712,,,,,,,,,,,,,,,,,,,,,,,,,,,,,,,,,,,,,,,,,,,,,,,,,,,,,,,,,,,,,,,,,,,,,,,,,,,
45.0, -187500.02235174447, 71480.23056748278, -187500.02235174447, -187500.02235174447, -187500.02235174447, 41759.18302049435, -187500.02235174447, -187500.02235174447, 0.006, 0.9560000000000001, 0.128, 192.0, 0.0, 0.0, 0.0, 0.0, 0.0, 0.0, 0.0, 0.0, 0.0, 1.6963224037125833E9, 0.0, 2023-10-03 17:40:03.712,,,,,,,,,,,,,,,,,,,,,,,,,,,,,,,,,,,,,,,,,,,,,,,,,,,,,,,,,,,,,,,,,,,,,,,,,,,
46.0, -187500.02235174447, 84957.7513286771, -187500.02235174447, -187500.02235174447, -187500.02235174447, 48255.35991851806, -187500.02235174447, -187500.02235174447, 0.012, 0.98, 0.126, 192.0, 0.0, 96.0, 30.0, 160.0, 3.0, 240.0, 0.0, 0.0, 0.0, 1.6963224037126017E9, 0.0, 2023-10-03 17:40:03.712,,,,,,,,,,,,,,,,,,,,,,,,,,,,,,,,,,,,,,,,,,,,,,,,,,,,,,,,,,,,,,,,,,,,,,,,,,,
47.0, -187500.02235174447, 74884.44595151496, -187500.02235174447, -187500.02235174447, -187500.02235174447, 43393.00613319947, -187500.02235174447, -187500.02235174447, 0.012, 0.98, 0.126, 192.0, 0.0, 0.0, 0.0, 0.0, 0.0, 0.0, 0.0, 0.0, 0.0, 1.6963224037126193E9, 0.0, 2023-10-03 17:40:03.712,,,,,,,,,,,,,,,,,,,,,,,,,,,,,,,,,,,,,,,,,,,,,,,,,,,,,,,,,,,,,,,,,,,,,,,,,,,
48.0, -187500.02235174447, 61131.752864331356, -187500.02235174447, -187500.02235174447, -187500.02235174447, 36415.082086930524, -187500.02235174447, -187500.02235174447, 0.012, 0.98, 0.126, 192.0, 0.0, 0.0, 0.0, 0.0, 0.0, 0.0, 0.0, 0.0, 0.0, 1.6963224037126367E9, 0.0, 2023-10-03 17:40:03.712,,,,,,,,,,,,,,,,,,,,,,,,,,,,,,,,,,,,,,,,,,,,,,,,,,,,,,,,,,,,,,,,,,,,,,,,,,,
49.0, -187500.02235174447, 67628.89088736664, -187500.02235174447, -187500.02235174447, -187500.02235174447, 39360.8408404399, -187500.02235174447, -187500.02235174447, 0.012, 0.98, 0.126, 192.0, 0.0, 0.0, 0.0, 0.0, 0.0, 0.0, 0.0, 0.0, 0.0, 1.696322403712654E9, 0.0, 2023-10-03 17:40:03.712,,,,,,,,,,,,,,,,,,,,,,,,,,,,,,,,,,,,,,,,,,,,,,,,,,,,,,,,,,,,,,,,,,,,,,,,,,,
50.0, -187500.02235174447, 83114.15709425892, -187500.02235174447, -187500.02235174447, -187500.02235174447, 46790.98538052862, -187500.02235174447, -187500.02235174447, 0.012, 0.98, 0.126, 192.0, 0.0, 0.0, 0.0, 0.0, 0.0, 0.0, 0.0, 0.0, 0.0, 1.6963224037126727E9, 0.0, 2023-10-03 17:40:03.712,,,,,,,,,,,,,,,,,,,,,,,,,,,,,,,,,,,,,,,,,,,,,,,,,,,,,,,,,,,,,,,,,,,,,,,,,,,
51.0, -187500.02235174447, 77072.52527147833, -187500.02235174447, -187500.02235174447, -187500.02235174447, 43920.417895366896, -187500.02235174447, -187500.02235174447, 0.012, 0.98, 0.126, 192.0, 0.0, 0.0, 0.0, 0.0, 0.0, 0.0, 0.0, 0.0, 0.0, 1.696322403712691E9, 0.0, 2023-10-03 17:40:03.712,,,,,,,,,,,,,,,,,,,,,,,,,,,,,,,,,,,,,,,,,,,,,,,,,,,,,,,,,,,,,,,,,,,,,,,,,,,
52.0, -187500.02235174447, 61347.51425355843, -187500.02235174447, -187500.02235174447, -187500.02235174447, 36023.61363454028, -187500.02235174447, -187500.02235174447, 0.012, 0.98, 0.126, 192.0, 0.0, 0.0, 0.0, 0.0, 0.0, 0.0, 0.0, 0.0, 0.0, 1.6963224037127097E9, 0.0, 2023-10-03 17:40:03.712,,,,,,,,,,,,,,,,,,,,,,,,,,,,,,,,,,,,,,,,,,,,,,,,,,,,,,,,,,,,,,,,,,,,,,,,,,,
53.0, -187500.02235174447, 64078.96448123032, -187500.02235174447, -187500.02235174447, -187500.02235174447, 37093.546938126914, -187500.02235174447, -187500.02235174447, 0.012, 0.98, 0.126, 192.0, 0.0, 0.0, 0.0, 0.0, 0.0, 0.0, 0.0, 0.0, 0.0, 1.6963224037127275E9, 0.0, 2023-10-03 17:40:03.712,,,,,,,,,,,,,,,,,,,,,,,,,,,,,,,,,,,,,,,,,,,,,,,,,,,,,,,,,,,,,,,,,,,,,,,,,,,
54.0, -187500.02235174447, 80376.60484035073, -187500.02235174447, -187500.02235174447, -187500.02235174447, 44895.11041582947, -187500.02235174447, -187500.02235174447, 0.012, 0.98, 0.126, 192.0, 0.0, 0.0, 0.0, 0.0, 0.0, 0.0, 0.0, 0.0, 0.0, 1.6963224037127447E9, 0.0, 2023-10-03 17:40:03.712,,,,,,,,,,,,,,,,,,,,,,,,,,,,,,,,,,,,,,,,,,,,,,,,,,,,,,,,,,,,,,,,,,,,,,,,,,,
55.0, -187500.02235174447, 78885.22939505929, -187500.02235174447, -187500.02235174447, -187500.02235174447, 44260.589094232215, -187500.02235174447, -187500.02235174447, 0.012, 0.98, 0.126, 192.0, 0.0, 0.0, 0.0, 0.0, 0.0, 0.0, 0.0, 0.0, 0.0, 1.696322403712762E9, 0.0, 2023-10-03 17:40:03.712,,,,,,,,,,,,,,,,,,,,,,,,,,,,,,,,,,,,,,,,,,,,,,,,,,,,,,,,,,,,,,,,,,,,,,,,,,,
56.0, -187500.02235174447, 62215.946580880474, -187500.02235174447, -187500.02235174447, -187500.02235174447, 35957.51952618593, -187500.02235174447, -187500.02235174447, 0.02, 0.99, 0.122, 192.0, 0.0, 160.0, 30.0, 240.0, 3.0, 208.0, 0.0, 0.0, 0.0, 1.6963224037127802E9, 0.0, 2023-10-03 17:40:03.712,,,,,,,,,,,,,,,,,,,,,,,,,,,,,,,,,,,,,,,,,,,,,,,,,,,,,,,,,,,,,,,,,,,,,,,,,,,
57.0, -187500.02235174447, 61121.314599670724, -187500.02235174447, -187500.02235174447, -187500.02235174447, 35139.445679121694, -187500.02235174447, -187500.02235174447, 0.02, 0.99, 0.122, 192.0, 0.0, 0.0, 0.0, 0.0, 0.0, 0.0, 0.0, 0.0, 0.0, 1.6963224037127976E9, 0.0, 2023-10-03 17:40:03.712,,,,,,,,,,,,,,,,,,,,,,,,,,,,,,,,,,,,,,,,,,,,,,,,,,,,,,,,,,,,,,,,,,,,,,,,,,,
58.0, -187500.02235174447, 77083.76819893935, -187500.02235174447, -187500.02235174447, -187500.02235174447, 42759.06595695805, -187500.02235174447, -187500.02235174447, 0.02, 0.99, 0.122, 192.0, 0.0, 0.0, 0.0, 0.0, 0.0, 0.0, 0.0, 0.0, 0.0, 1.6963224037128153E9, 0.0, 2023-10-03 17:40:03.712,,,,,,,,,,,,,,,,,,,,,,,,,,,,,,,,,,,,,,,,,,,,,,,,,,,,,,,,,,,,,,,,,,,,,,,,,,,
59.0, -187500.02235174447, 80309.39314477362, -187500.02235174447, -187500.02235174447, -187500.02235174447, 44389.98334288399, -187500.02235174447, -187500.02235174447, 0.02, 0.99, 0.122, 192.0, 0.0, 0.0, 0.0, 0.0, 0.0, 0.0, 0.0, 0.0, 0.0, 1.6963224037128336E9, 0.0, 2023-10-03 17:40:03.712,,,,,,,,,,,,,,,,,,,,,,,,,,,,,,,,,,,,,,,,,,,,,,,,,,,,,,,,,,,,,,,,,,,,,,,,,,,
60.0, -187500.02235174447, 63738.61446840936, -187500.02235174447, -187500.02235174447, -187500.02235174447, 36175.76195904755, -187500.02235174447, -187500.02235174447, 0.02, 0.99, 0.122, 192.0, 0.0, 0.0, 0.0, 0.0, 0.0, 0.0, 0.0, 0.0, 0.0, 1.6963224037128513E9, 0.0, 2023-10-03 17:40:03.712,,,,,,,,,,,,,,,,,,,,,,,,,,,,,,,,,,,,,,,,,,,,,,,,,,,,,,,,,,,,,,,,,,,,,,,,,,,
61.0, -187500.02235174447, 58825.8351475996, -187500.02235174447, -187500.02235174447, -187500.02235174447, 33481.214461471376, -187500.02235174447, -187500.02235174447, 0.02, 0.99, 0.122, 192.0, 0.0, 0.0, 0.0, 0.0, 0.0, 0.0, 0.0, 0.0, 0.0, 1.6963224037128687E9, 0.0, 2023-10-03 17:40:03.712,,,,,,,,,,,,,,,,,,,,,,,,,,,,,,,,,,,,,,,,,,,,,,,,,,,,,,,,,,,,,,,,,,,,,,,,,,,
62.0, -187500.02235174447, 73362.5156715531, -187500.02235174447, -187500.02235174447, -187500.02235174447, 40397.78296921051, -187500.02235174447, -187500.02235174447, 0.02, 0.99, 0.122, 192.0, 0.0, 0.0, 0.0, 0.0, 0.0, 0.0, 0.0, 0.0, 0.0, 1.696322403712886E9, 0.0, 2023-10-03 17:40:03.712,,,,,,,,,,,,,,,,,,,,,,,,,,,,,,,,,,,,,,,,,,,,,,,,,,,,,,,,,,,,,,,,,,,,,,,,,,,
63.0, -187500.02235174447, 80891.38786690091, -187500.02235174447, -187500.02235174447, -187500.02235174447, 44100.237679509846, -187500.02235174447, -187500.02235174447, 0.02, 0.99, 0.122, 192.0, 0.0, 0.0, 0.0, 0.0, 0.0, 0.0, 0.0, 0.0, 0.0, 1.6963224037129035E9, 0.0, 2023-10-03 17:40:03.712,,,,,,,,,,,,,,,,,,,,,,,,,,,,,,,,,,,,,,,,,,,,,,,,,,,,,,,,,,,,,,,,,,,,,,,,,,,
64.0, -187500.02235174447, 65629.54969758388, -187500.02235174447, -187500.02235174447, -187500.02235174447, 36583.30131570117, -187500.02235174447, -187500.02235174447, 0.02, 0.99, 0.122, 192.0, 0.0, 0.0, 0.0, 0.0, 0.0, 0.0, 0.0, 0.0, 0.0, 1.6963224037129211E9, 0.0, 2023-10-03 17:40:03.712,,,,,,,,,,,,,,,,,,,,,,,,,,,,,,,,,,,,,,,,,,,,,,,,,,,,,,,,,,,,,,,,,,,,,,,,,,,
65.0, -187500.02235174447, 57191.229723838536, -187500.02235174447, -187500.02235174447, -187500.02235174447, 32161.679227552326, -187500.02235174447, -187500.02235174447, 0.02, 0.99, 0.122, 192.0, 0.0, 0.0, 0.0, 0.0, 0.0, 0.0, 0.0, 0.0, 0.0, 1.6963224037129433E9, 0.0, 2023-10-03 17:40:03.712,,,,,,,,,,,,,,,,,,,,,,,,,,,,,,,,,,,,,,,,,,,,,,,,,,,,,,,,,,,,,,,,,,,,,,,,,,,
66.0, -187500.02235174447, 69415.17524900142, -187500.02235174447, -187500.02235174447, -187500.02235174447, 37926.954081887496, -187500.02235174447, -187500.02235174447, 0.014, 0.976, 0.10200000000000001, 192.0, 0.0, 112.0, 30.0, 128.0, 3.0, 48.0, 0.0, 0.0, 0.0, 1.6963224037129617E9, 0.0, 2023-10-03 17:40:03.712,,,,,,,,,,,,,,,,,,,,,,,,,,,,,,,,,,,,,,,,,,,,,,,,,,,,,,,,,,,,,,,,,,,,,,,,,,,
67.0, -187500.02235174447, 80677.30285850797, -187500.02235174447, -187500.02235174447, -187500.02235174447, 43397.49883383499, -187500.02235174447, -187500.02235174447, 0.014, 0.976, 0.10200000000000001, 192.0, 0.0, 0.0, 0.0, 0.0, 0.0, 0.0, 0.0, 0.0, 0.0, 1.6963224037129805E9, 0.0, 2023-10-03 17:40:03.712,,,,,,,,,,,,,,,,,,,,,,,,,,,,,,,,,,,,,,,,,,,,,,,,,,,,,,,,,,,,,,,,,,,,,,,,,,,
68.0, -187500.02235174447, 67921.94460892018, -187500.02235174447, -187500.02235174447, -187500.02235174447, 37150.83445916587, -187500.02235174447, -187500.02235174447, 0.014, 0.976, 0.10200000000000001, 192.0, 0.0, 0.0, 0.0, 0.0, 0.0, 0.0, 0.0, 0.0, 0.0, 1.696322403712999E9, 0.0, 2023-10-03 17:40:03.712,,,,,,,,,,,,,,,,,,,,,,,,,,,,,,,,,,,,,,,,,,,,,,,,,,,,,,,,,,,,,,,,,,,,,,,,,,,
69.0, -187500.02235174447, 56267.029794100505, -187500.02235174447, -187500.02235174447, -187500.02235174447, 31145.479517636242, -187500.02235174447, -187500.02235174447, 0.014, 0.976, 0.10200000000000001, 192.0, 0.0, 0.0, 0.0, 0.0, 0.0, 0.0, 0.0, 0.0, 0.0, 1.696322403713018E9, 0.0, 2023-10-03 17:40:03.713,,,,,,,,,,,,,,,,,,,,,,,,,,,,,,,,,,,,,,,,,,,,,,,,,,,,,,,,,,,,,,,,,,,,,,,,,,,
70.0, -187500.02235174447, 65399.8855233056, -187500.02235174447, -187500.02235174447, -187500.02235174447, 35377.58116454854, -187500.02235174447, -187500.02235174447, 0.014, 0.976, 0.10200000000000001, 192.0, 0.0, 0.0, 0.0, 0.0, 0.0, 0.0, 0.0, 0.0, 0.0, 1.6963224037130375E9, 0.0, 2023-10-03 17:40:03.713,,,,,,,,,,,,,,,,,,,,,,,,,,,,,,,,,,,,,,,,,,,,,,,,,,,,,,,,,,,,,,,,,,,,,,,,,,,
71.0, -187500.02235174447, 79441.83253548534, -187500.02235174447, -187500.02235174447, -187500.02235174447, 42174.6572464296, -187500.02235174447, -187500.02235174447, 0.014, 0.976, 0.10200000000000001, 192.0, 0.0, 0.0, 0.0, 0.0, 0.0, 0.0, 0.0, 0.0, 0.0, 1.6963224037130566E9, 0.0, 2023-10-03 17:40:03.713,,,,,,,,,,,,,,,,,,,,,,,,,,,,,,,,,,,,,,,,,,,,,,,,,,,,,,,,,,,,,,,,,,,,,,,,,,,
72.0, -187500.02235174447, 70143.70800777769, -187500.02235174447, -187500.02235174447, -187500.02235174447, 37647.669034918436, -187500.02235174447, -187500.02235174447, 0.014, 0.976, 0.10200000000000001, 192.0, 0.0, 0.0, 0.0, 0.0, 0.0, 0.0, 0.0, 0.0, 0.0, 1.6963224037130756E9, 0.0, 2023-10-03 17:40:03.713,,,,,,,,,,,,,,,,,,,,,,,,,,,,,,,,,,,,,,,,,,,,,,,,,,,,,,,,,,,,,,,,,,,,,,,,,,,
73.0, -187500.02235174447, 55944.807046032794, -187500.02235174447, -187500.02235174447, -187500.02235174447, 30370.29866818174, -187500.02235174447, -187500.02235174447, 0.014, 0.976, 0.10200000000000001, 192.0, 0.0, 0.0, 0.0, 0.0, 0.0, 0.0, 0.0, 0.0, 0.0, 1.6963224037130947E9, 0.0, 2023-10-03 17:40:03.713,,,,,,,,,,,,,,,,,,,,,,,,,,,,,,,,,,,,,,,,,,,,,,,,,,,,,,,,,,,,,,,,,,,,,,,,,,,
74.0, -187500.02235174447, 61611.26483813106, -187500.02235174447, -187500.02235174447, -187500.02235174447, 32850.64939864271, -187500.02235174447, -187500.02235174447, 0.014, 0.976, 0.10200000000000001, 192.0, 0.0, 0.0, 0.0, 0.0, 0.0, 0.0, 0.0, 0.0, 0.0, 1.6963224037131164E9, 0.0, 2023-10-03 17:40:03.713,,,,,,,,,,,,,,,,,,,,,,,,,,,,,,,,,,,,,,,,,,,,,,,,,,,,,,,,,,,,,,,,,,,,,,,,,,,
75.0, -187500.02235174447, 77274.20506169857, -187500.02235174447, -187500.02235174447, -187500.02235174447, 40409.11530364935, -187500.02235174447, -187500.02235174447, 0.014, 0.976, 0.10200000000000001, 192.0, 0.0, 0.0, 0.0, 0.0, 0.0, 0.0, 0.0, 0.0, 0.0, 1.696322403713134E9, 0.0, 2023-10-03 17:40:03.713,,,,,,,,,,,,,,,,,,,,,,,,,,,,,,,,,,,,,,,,,,,,,,,,,,,,,,,,,,,,,,,,,,,,,,,,,,,
76.0, -187500.02235174447, 72178.7896369445, -187500.02235174447, -187500.02235174447, -187500.02235174447, 37972.17166092058, -187500.02235174447, -187500.02235174447, -0.002, 0.98, 0.076, 192.0, 255.0, 240.0, 30.0, 160.0, 2.0, 96.0, 0.0, 0.0, 0.0, 1.696322403713152E9, 0.0, 2023-10-03 17:40:03.713,,,,,,,,,,,,,,,,,,,,,,,,,,,,,,,,,,,,,,,,,,,,,,,,,,,,,,,,,,,,,,,,,,,,,,,,,,,
77.0, -187500.02235174447, 56266.672166189215, -187500.02235174447, -187500.02235174447, -187500.02235174447, 29890.45141821521, -187500.02235174447, -187500.02235174447, -0.002, 0.98, 0.076, 192.0, 0.0, 0.0, 0.0, 0.0, 0.0, 0.0, 0.0, 0.0, 0.0, 1.69632240371317E9, 0.0, 2023-10-03 17:40:03.713,,,,,,,,,,,,,,,,,,,,,,,,,,,,,,,,,,,,,,,,,,,,,,,,,,,,,,,,,,,,,,,,,,,,,,,,,,,
78.0, -187500.02235174447, 58105.25960984941, -187500.02235174447, -187500.02235174447, -187500.02235174447, 30467.573460051237, -187500.02235174447, -187500.02235174447, -0.002, 0.98, 0.076, 192.0, 0.0, 0.0, 0.0, 0.0, 0.0, 0.0, 0.0, 0.0, 0.0, 1.6963224037131867E9, 0.0, 2023-10-03 17:40:03.713,,,,,,,,,,,,,,,,,,,,,,,,,,,,,,,,,,,,,,,,,,,,,,,,,,,,,,,,,,,,,,,,,,,,,,,,,,,
79.0, -187500.02235174447, 74244.31434205941, -187500.02235174447, -187500.02235174447, -187500.02235174447, 38239.85615251734, -187500.02235174447, -187500.02235174447, -0.002, 0.98, 0.076, 192.0, 0.0, 0.0, 0.0, 0.0, 0.0, 0.0, 0.0, 0.0, 0.0, 1.6963224037132037E9, 0.0, 2023-10-03 17:40:03.713,,,,,,,,,,,,,,,,,,,,,,,,,,,,,,,,,,,,,,,,,,,,,,,,,,,,,,,,,,,,,,,,,,,,,,,,,,,
80.0, -187500.02235174447, 73730.82771668765, -187500.02235174447, -187500.02235174447, -187500.02235174447, 38047.45233624605, -187500.02235174447, -187500.02235174447, -0.002, 0.98, 0.076, 192.0, 0.0, 0.0, 0.0, 0.0, 0.0, 0.0, 0.0, 0.0, 0.0, 1.6963224037132225E9, 0.0, 2023-10-03 17:40:03.713,,,,,,,,,,,,,,,,,,,,,,,,,,,,,,,,,,,,,,,,,,,,,,,,,,,,,,,,,,,,,,,,,,,,,,,,,,,
81.0, -187500.02235174447, 57105.309618152336, -187500.02235174447, -187500.02235174447, -187500.02235174447, 29683.183691881146, -187500.02235174447, -187500.02235174447, -0.002, 0.98, 0.076, 192.0, 0.0, 0.0, 0.0, 0.0, 0.0, 0.0, 0.0, 0.0, 0.0, 1.6963224037132397E9, 0.0, 2023-10-03 17:40:03.713,,,,,,,,,,,,,,,,,,,,,,,,,,,,,,,,,,,,,,,,,,,,,,,,,,,,,,,,,,,,,,,,,,,,,,,,,,,
82.0, -187500.02235174447, 55168.10627795533, -187500.02235174447, -187500.02235174447, -187500.02235174447, 28413.38108937515, -187500.02235174447, -187500.02235174447, -0.002, 0.98, 0.076, 192.0, 0.0, 0.0, 0.0, 0.0, 0.0, 0.0, 0.0, 0.0, 0.0, 1.6963224037132564E9, 0.0, 2023-10-03 17:40:03.713,,,,,,,,,,,,,,,,,,,,,,,,,,,,,,,,,,,,,,,,,,,,,,,,,,,,,,,,,,,,,,,,,,,,,,,,,,,
83.0, -187500.02235174447, 70665.62124080912, -187500.02235174447, -187500.02235174447, -187500.02235174447, 35870.05715013232, -187500.02235174447, -187500.02235174447, -0.002, 0.98, 0.076, 192.0, 0.0, 0.0, 0.0, 0.0, 0.0, 0.0, 0.0, 0.0, 0.0, 1.696322403713274E9, 0.0, 2023-10-03 17:40:03.713,,,,,,,,,,,,,,,,,,,,,,,,,,,,,,,,,,,,,,,,,,,,,,,,,,,,,,,,,,,,,,,,,,,,,,,,,,,
84.0, -187500.02235174447, 74748.03325510422, -187500.02235174447, -187500.02235174447, -187500.02235174447, 37966.06963468428, -187500.02235174447, -187500.02235174447, -0.002, 0.98, 0.076, 192.0, 0.0, 0.0, 0.0, 0.0, 0.0, 0.0, 0.0, 0.0, 0.0, 1.6963224037132926E9, 0.0, 2023-10-03 17:40:03.713,,,,,,,,,,,,,,,,,,,,,,,,,,,,,,,,,,,,,,,,,,,,,,,,,,,,,,,,,,,,,,,,,,,,,,,,,,,
85.0, -187500.02235174447, 58553.65795536732, -187500.02235174447, -187500.02235174447, -187500.02235174447, 29881.57777566645, -187500.02235174447, -187500.02235174447, -0.002, 0.98, 0.076, 192.0, 0.0, 0.0, 0.0, 0.0, 0.0, 0.0, 0.0, 0.0, 0.0, 1.696322403713311E9, 0.0, 2023-10-03 17:40:03.713,,,,,,,,,,,,,,,,,,,,,,,,,,,,,,,,,,,,,,,,,,,,,,,,,,,,,,,,,,,,,,,,,,,,,,,,,,,
86.0, -187500.02235174447, 52836.12642718869, -187500.02235174447, -187500.02235174447, -187500.02235174447, 26737.402586627315, -187500.02235174447, -187500.02235174447, -0.008, 0.994, 0.044, 192.0, 255.0, 192.0, 31.0, 16.0, 1.0, 96.0, 0.0, 0.0, 0.0, 1.6963224037133284E9, 0.0, 2023-10-03 17:40:03.713,,,,,,,,,,,,,,,,,,,,,,,,,,,,,,,,,,,,,,,,,,,,,,,,,,,,,,,,,,,,,,,,,,,,,,,,,,,
87.0, -187500.02235174447, 66665.06131470935, -187500.02235174447, -187500.02235174447, -187500.02235174447, 33326.138058440454, -187500.02235174447, -187500.02235174447, -0.008, 0.994, 0.044, 192.0, 0.0, 0.0, 0.0, 0.0, 0.0, 0.0, 0.0, 0.0, 0.0, 1.6963224037133517E9, 0.0, 2023-10-03 17:40:03.713,,,,,,,,,,,,,,,,,,,,,,,,,,,,,,,,,,,,,,,,,,,,,,,,,,,,,,,,,,,,,,,,,,,,,,,,,,,
88.0, -187500.02235174447, 74920.52166706583, -187500.02235174447, -187500.02235174447, -187500.02235174447, 37415.635575727894, -187500.02235174447, -187500.02235174447, -0.008, 0.994, 0.044, 192.0, 0.0, 0.0, 0.0, 0.0, 0.0, 0.0, 0.0, 0.0, 0.0, 1.6963224037133703E9, 0.0, 2023-10-03 17:40:03.713,,,,,,,,,,,,,,,,,,,,,,,,,,,,,,,,,,,,,,,,,,,,,,,,,,,,,,,,,,,,,,,,,,,,,,,,,,,
89.0, -187500.02235174447, 60326.21834590654, -187500.02235174447, -187500.02235174447, -187500.02235174447, 30154.49257546575, -187500.02235174447, -187500.02235174447, -0.008, 0.994, 0.044, 192.0, 0.0, 0.0, 0.0, 0.0, 0.0, 0.0, 0.0, 0.0, 0.0, 1.6963224037133906E9, 0.0, 2023-10-03 17:40:03.713,,,,,,,,,,,,,,,,,,,,,,,,,,,,,,,,,,,,,,,,,,,,,,,,,,,,,,,,,,,,,,,,,,,,,,,,,,,
90.0, -187500.02235174447, 51179.79510781707, -187500.02235174447, -187500.02235174447, -187500.02235174447, 25329.667369087623, -187500.02235174447, -187500.02235174447, -0.008, 0.994, 0.044, 192.0, 0.0, 0.0, 0.0, 0.0, 0.0, 0.0, 0.0, 0.0, 0.0, 1.6963224037134092E9, 0.0, 2023-10-03 17:40:03.713,,,,,,,,,,,,,,,,,,,,,,,,,,,,,,,,,,,,,,,,,,,,,,,,,,,,,,,,,,,,,,,,,,,,,,,,,,,
91.0, -187500.02235174447, 62414.54183036588, -187500.02235174447, -187500.02235174447, -187500.02235174447, 30653.718787875034, -187500.02235174447, -187500.02235174447, -0.008, 0.994, 0.044, 192.0, 0.0, 0.0, 0.0, 0.0, 0.0, 0.0, 0.0, 0.0, 0.0, 1.6963224037134275E9, 0.0, 2023-10-03 17:40:03.713,,,,,,,,,,,,,,,,,,,,,,,,,,,,,,,,,,,,,,,,,,,,,,,,,,,,,,,,,,,,,,,,,,,,,,,,,,,
92.0, -187500.02235174447, 74007.0729264108, -187500.02235174447, -187500.02235174447, -187500.02235174447, 36389.66815348484, -187500.02235174447, -187500.02235174447, -0.008, 0.994, 0.044, 192.0, 0.0, 0.0, 0.0, 0.0, 0.0, 0.0, 0.0, 0.0, 0.0, 1.6963224037134457E9, 0.0, 2023-10-03 17:40:03.713,,,,,,,,,,,,,,,,,,,,,,,,,,,,,,,,,,,,,,,,,,,,,,,,,,,,,,,,,,,,,,,,,,,,,,,,,,,
93.0, -187500.02235174447, 62113.44148080844, -187500.02235174447, -187500.02235174447, -187500.02235174447, 30557.539231483846, -187500.02235174447, -187500.02235174447, -0.008, 0.994, 0.044, 192.0, 0.0, 0.0, 0.0, 0.0, 0.0, 0.0, 0.0, 0.0, 0.0, 1.6963224037134645E9, 0.0, 2023-10-03 17:40:03.713,,,,,,,,,,,,,,,,,,,,,,,,,,,,,,,,,,,,,,,,,,,,,,,,,,,,,,,,,,,,,,,,,,,,,,,,,,,
94.0, -187500.02235174447, 50011.31296292698, -187500.02235174447, -187500.02235174447, -187500.02235174447, 24273.122760429713, -187500.02235174447, -187500.02235174447, -0.008, 0.994, 0.044, 192.0, 0.0, 0.0, 0.0, 0.0, 0.0, 0.0, 0.0, 0.0, 0.0, 1.696322403713483E9, 0.0, 2023-10-03 17:40:03.713,,,,,,,,,,,,,,,,,,,,,,,,,,,,,,,,,,,,,,,,,,,,,,,,,,,,,,,,,,,,,,,,,,,,,,,,,,,
95.0, -187500.02235174447, 58181.344947975274, -187500.02235174447, -187500.02235174447, -187500.02235174447, 28030.339244644554, -187500.02235174447, -187500.02235174447, -0.008, 0.994, 0.044, 192.0, 0.0, 0.0, 0.0, 0.0, 0.0, 0.0, 0.0, 0.0, 0.0, 1.6963224037135017E9, 0.0, 2023-10-03 17:40:03.713,,,,,,,,,,,,,,,,,,,,,,,,,,,,,,,,,,,,,,,,,,,,,,,,,,,,,,,,,,,,,,,,,,,,,,,,,,,
96.0, -187500.02235174447, 72327.071109661, -187500.02235174447, -187500.02235174447, -187500.02235174447, 34914.140095012204, -187500.02235174447, -187500.02235174447, 0.016, 1.0, 0.04, 192.0, 0.0, 128.0, 31.0, 64.0, 1.0, 64.0, 0.0, 0.0, 0.0, 1.69632240371352E9, 0.0, 2023-10-03 17:40:03.713,,,,,,,,,,,,,,,,,,,,,,,,,,,,,,,,,,,,,,,,,,,,,,,,,,,,,,,,,,,,,,,,,,,,,,,,,,,
97.0, -187500.02235174447, 64126.81956610913, -187500.02235174447, -187500.02235174447, -187500.02235174447, 30898.58214838292, -187500.02235174447, -187500.02235174447, 0.016, 1.0, 0.04, 192.0, 0.0, 0.0, 0.0, 0.0, 0.0, 0.0, 0.0, 0.0, 0.0, 1.6963224037135382E9, 0.0, 2023-10-03 17:40:03.713,,,,,,,,,,,,,,,,,,,,,,,,,,,,,,,,,,,,,,,,,,,,,,,,,,,,,,,,,,,,,,,,,,,,,,,,,,,
98.0, -187500.02235174447, 49806.258059294, -187500.02235174447, -187500.02235174447, -187500.02235174447, 23529.100242745906, -187500.02235174447, -187500.02235174447, 0.016, 1.0, 0.04, 192.0, 0.0, 0.0, 0.0, 0.0, 0.0, 0.0, 0.0, 0.0, 0.0, 1.6963224037135568E9, 0.0, 2023-10-03 17:40:03.713,,,,,,,,,,,,,,,,,,,,,,,,,,,,,,,,,,,,,,,,,,,,,,,,,,,,,,,,,,,,,,,,,,,,,,,,,,,
99.0, -187500.02235174447, 54492.12247039348, -187500.02235174447, -187500.02235174447, -187500.02235174447, 25531.928304663696, -187500.02235174447, -187500.02235174447, 0.016, 1.0, 0.04, 192.0, 0.0, 0.0, 0.0, 0.0, 0.0, 0.0, 0.0, 0.0, 0.0, 1.6963224037135763E9, 0.0, 2023-10-03 17:40:03.713,,,,,,,,,,,,,,,,,,,,,,,,,,,,,,,,,,,,,,,,,,,,,,,,,,,,,,,,,,,,,,,,,,,,,,,,,,,
100.0, -187500.02235174447, 69951.34889499532, -187500.02235174447, -187500.02235174447, -187500.02235174447, 33019.941511147204, -187500.02235174447, -187500.02235174447, 0.016, 1.0, 0.04, 192.0, 0.0, 0.0, 0.0, 0.0, 0.0, 0.0, 0.0, 0.0, 0.0, 1.6963224037135952E9, 0.0, 2023-10-03 17:40:03.713,,,,,,,,,,,,,,,,,,,,,,,,,,,,,,,,,,,,,,,,,,,,,,,,,,,,,,,,,,,,,,,,,,,,,,,,,,,
101.0, -187500.02235174447, 66045.58271713051, -187500.02235174447, -187500.02235174447, -187500.02235174447, 31123.194828414304, -187500.02235174447, -187500.02235174447, 0.016, 1.0, 0.04, 192.0, 0.0, 0.0, 0.0, 0.0, 0.0, 0.0, 0.0, 0.0, 0.0, 1.6963224037136137E9, 0.0, 2023-10-03 17:40:03.713,,,,,,,,,,,,,,,,,,,,,,,,,,,,,,,,,,,,,,,,,,,,,,,,,,,,,,,,,,,,,,,,,,,,,,,,,,,
102.0, -187500.02235174447, 50334.54153949518, -187500.02235174447, -187500.02235174447, -187500.02235174447, 23102.89717947211, -187500.02235174447, -187500.02235174447, 0.016, 1.0, 0.04, 192.0, 0.0, 0.0, 0.0, 0.0, 0.0, 0.0, 0.0, 0.0, 0.0, 1.696322403713632E9, 0.0, 2023-10-03 17:40:03.713,,,,,,,,,,,,,,,,,,,,,,,,,,,,,,,,,,,,,,,,,,,,,,,,,,,,,,,,,,,,,,,,,,,,,,,,,,,
103.0, -187500.02235174447, 51385.09588063906, -187500.02235174447, -187500.02235174447, -187500.02235174447, 23280.75001010299, -187500.02235174447, -187500.02235174447, 0.016, 1.0, 0.04, 192.0, 0.0, 0.0, 0.0, 0.0, 0.0, 0.0, 0.0, 0.0, 0.0, 1.6963224037136495E9, 0.0, 2023-10-03 17:40:03.713,,,,,,,,,,,,,,,,,,,,,,,,,,,,,,,,,,,,,,,,,,,,,,,,,,,,,,,,,,,,,,,,,,,,,,,,,,,
104.0, -187500.02235174447, 67121.32747427553, -187500.02235174447, -187500.02235174447, -187500.02235174447, 30854.951543206163, -187500.02235174447, -187500.02235174447, 0.016, 1.0, 0.04, 192.0, 0.0, 0.0, 0.0, 0.0, 0.0, 0.0, 0.0, 0.0, 0.0, 1.6963224037136664E9, 0.0, 2023-10-03 17:40:03.713,,,,,,,,,,,,,,,,,,,,,,,,,,,,,,,,,,,,,,,,,,,,,,,,,,,,,,,,,,,,,,,,,,,,,,,,,,,
105.0, -187500.02235174447, 67731.75361534997, -187500.02235174447, -187500.02235174447, -187500.02235174447, 31153.05675900659, -187500.02235174447, -187500.02235174447, 0.016, 1.0, 0.04, 192.0, 0.0, 0.0, 0.0, 0.0, 0.0, 0.0, 0.0, 0.0, 0.0, 1.696322403713683E9, 0.0, 2023-10-03 17:40:03.713,,,,,,,,,,,,,,,,,,,,,,,,,,,,,,,,,,,,,,,,,,,,,,,,,,,,,,,,,,,,,,,,,,,,,,,,,,,
106.0, -187500.02235174447, 51656.84838972669, -187500.02235174447, -187500.02235174447, -187500.02235174447, 22970.30663136323, -187500.02235174447, -187500.02235174447, 0.048, 0.9380000000000001, 0.034, 192.0, 1.0, 128.0, 29.0, 80.0, 1.0, 16.0, 0.0, 0.0, 0.0, 1.6963224037136996E9, 0.0, 2023-10-03 17:40:03.713,,,,,,,,,,,,,,,,,,,,,,,,,,,,,,,,,,,,,,,,,,,,,,,,,,,,,,,,,,,,,,,,,,,,,,,,,,,
107.0, -187500.02235174447, 48983.49034589414, -187500.02235174447, -187500.02235174447, -187500.02235174447, 21293.523465815004, -187500.02235174447, -187500.02235174447, 0.048, 0.9380000000000001, 0.034, 192.0, 0.0, 0.0, 0.0, 0.0, 0.0, 0.0, 0.0, 0.0, 0.0, 1.6963224037137167E9, 0.0, 2023-10-03 17:40:03.713,,,,,,,,,,,,,,,,,,,,,,,,,,,,,,,,,,,,,,,,,,,,,,,,,,,,,,,,,,,,,,,,,,,,,,,,,,,
108.0, -187500.02235174447, 63849.054437763036, -187500.02235174447, -187500.02235174447, -187500.02235174447, 28405.446220093516, -187500.02235174447, -187500.02235174447, 0.048, 0.9380000000000001, 0.034, 192.0, 0.0, 0.0, 0.0, 0.0, 0.0, 0.0, 0.0, 0.0, 0.0, 1.6963224037137375E9, 0.0, 2023-10-03 17:40:03.713,,,,,,,,,,,,,,,,,,,,,,,,,,,,,,,,,,,,,,,,,,,,,,,,,,,,,,,,,,,,,,,,,,,,,,,,,,,
109.0, -187500.02235174447, 68892.97144329207, -187500.02235174447, -187500.02235174447, -187500.02235174447, 30907.388735698314, -187500.02235174447, -187500.02235174447, 0.048, 0.9380000000000001, 0.034, 192.0, 0.0, 0.0, 0.0, 0.0, 0.0, 0.0, 0.0, 0.0, 0.0, 1.6963224037137547E9, 0.0, 2023-10-03 17:40:03.713,,,,,,,,,,,,,,,,,,,,,,,,,,,,,,,,,,,,,,,,,,,,,,,,,,,,,,,,,,,,,,,,,,,,,,,,,,,
110.0, -187500.02235174447, 53447.178417107876, -187500.02235174447, -187500.02235174447, -187500.02235174447, 23089.28496709883, -187500.02235174447, -187500.02235174447, 0.048, 0.9380000000000001, 0.034, 192.0, 0.0, 0.0, 0.0, 0.0, 0.0, 0.0, 0.0, 0.0, 0.0, 1.6963224037137713E9, 0.0, 2023-10-03 17:40:03.713,,,,,,,,,,,,,,,,,,,,,,,,,,,,,,,,,,,,,,,,,,,,,,,,,,,,,,,,,,,,,,,,,,,,,,,,,,,
111.0, -187500.02235174447, 47212.18165304443, -187500.02235174447, -187500.02235174447, -187500.02235174447, 19628.899649250467, -187500.02235174447, -187500.02235174447, 0.048, 0.9380000000000001, 0.034, 192.0, 0.0, 0.0, 0.0, 0.0, 0.0, 0.0, 0.0, 0.0, 0.0, 1.696322403713789E9, 0.0, 2023-10-03 17:40:03.713,,,,,,,,,,,,,,,,,,,,,,,,,,,,,,,,,,,,,,,,,,,,,,,,,,,,,,,,,,,,,,,,,,,,,,,,,,,
112.0, -187500.02235174447, 60231.82692907178, -187500.02235174447, -187500.02235174447, -187500.02235174447, 25813.15795340037, -187500.02235174447, -187500.02235174447, 0.048, 0.9380000000000001, 0.034, 192.0, 0.0, 0.0, 0.0, 0.0, 0.0, 0.0, 0.0, 0.0, 0.0, 1.6963224037138069E9, 0.0, 2023-10-03 17:40:03.713,,,,,,,,,,,,,,,,,,,,,,,,,,,,,,,,,,,,,,,,,,,,,,,,,,,,,,,,,,,,,,,,,,,,,,,,,,,
113.0, -187500.02235174447, 69068.85732041088, -187500.02235174447, -187500.02235174447, -187500.02235174447, 30182.588718246072, -187500.02235174447, -187500.02235174447, 0.048, 0.9380000000000001, 0.034, 192.0, 0.0, 0.0, 0.0, 0.0, 0.0, 0.0, 0.0, 0.0, 0.0, 1.6963224037138247E9, 0.0, 2023-10-03 17:40:03.713,,,,,,,,,,,,,,,,,,,,,,,,,,,,,,,,,,,,,,,,,,,,,,,,,,,,,,,,,,,,,,,,,,,,,,,,,,,
114.0, -187500.02235174447, 55465.87621758893, -187500.02235174447, -187500.02235174447, -187500.02235174447, 23334.885935173745, -187500.02235174447, -187500.02235174447, 0.048, 0.9380000000000001, 0.034, 192.0, 0.0, 0.0, 0.0, 0.0, 0.0, 0.0, 0.0, 0.0, 0.0, 1.6963224037138429E9, 0.0, 2023-10-03 17:40:03.713,,,,,,,,,,,,,,,,,,,,,,,,,,,,,,,,,,,,,,,,,,,,,,,,,,,,,,,,,,,,,,,,,,,,,,,,,,,
115.0, -187500.02235174447, 45907.77855012161, -187500.02235174447, -187500.02235174447, -187500.02235174447, 18247.539490168034, -187500.02235174447, -187500.02235174447, 0.048, 0.9380000000000001, 0.034, 192.0, 0.0, 0.0, 0.0, 0.0, 0.0, 0.0, 0.0, 0.0, 0.0, 1.69632240371386E9, 0.0, 2023-10-03 17:40:03.713,,,,,,,,,,,,,,,,,,,,,,,,,,,,,,,,,,,,,,,,,,,,,,,,,,,,,,,,,,,,,,,,,,,,,,,,,,,
116.0, -187500.02235174447, 56260.74895390856, -187500.02235174447, -187500.02235174447, -187500.02235174447, 23133.988456009443, -187500.02235174447, -187500.02235174447, 0.046, 0.9480000000000001, 0.002, 192.0, 1.0, 112.0, 29.0, 160.0, 0.0, 16.0, 0.0, 0.0, 0.0, 1.6963224037138772E9, 0.0, 2023-10-03 17:40:03.713,,,,,,,,,,,,,,,,,,,,,,,,,,,,,,,,,,,,,,,,,,,,,,,,,,,,,,,,,,,,,,,,,,,,,,,,,,,
117.0, -187500.02235174447, 68225.52600211215, -187500.02235174447, -187500.02235174447, -187500.02235174447, 29078.99368750974, -187500.02235174447, -187500.02235174447, 0.046, 0.9480000000000001, 0.002, 192.0, 0.0, 0.0, 0.0, 0.0, 0.0, 0.0, 0.0, 0.0, 0.0, 1.6963224037138944E9, 0.0, 2023-10-03 17:40:03.713,,,,,,,,,,,,,,,,,,,,,,,,,,,,,,,,,,,,,,,,,,,,,,,,,,,,,,,,,,,,,,,,,,,,,,,,,,,
118.0, -187500.02235174447, 57367.00384223507, -187500.02235174447, -187500.02235174447, -187500.02235174447, 23671.123227014927, -187500.02235174447, -187500.02235174447, 0.046, 0.9480000000000001, 0.002, 192.0, 0.0, 0.0, 0.0, 0.0, 0.0, 0.0, 0.0, 0.0, 0.0, 1.6963224037139115E9, 0.0, 2023-10-03 17:40:03.713,,,,,,,,,,,,,,,,,,,,,,,,,,,,,,,,,,,,,,,,,,,,,,,,,,,,,,,,,,,,,,,,,,,,,,,,,,,
119.0, -187500.02235174447, 44983.48921340576, -187500.02235174447, -187500.02235174447, -187500.02235174447, 17224.611905170907, -187500.02235174447, -187500.02235174447, 0.046, 0.9480000000000001, 0.002, 192.0, 0.0, 0.0, 0.0, 0.0, 0.0, 0.0, 0.0, 0.0, 0.0, 1.696322403713929E9, 0.0, 2023-10-03 17:40:03.713,,,,,,,,,,,,,,,,,,,,,,,,,,,,,,,,,,,,,,,,,,,,,,,,,,,,,,,,,,,,,,,,,,,,,,,,,,,
120.0, -187500.02235174447, 52176.86172447941, -187500.02235174447, -187500.02235174447, -187500.02235174447, 20583.92263459237, -187500.02235174447, -187500.02235174447, 0.046, 0.9480000000000001, 0.002, 192.0, 0.0, 0.0, 0.0, 0.0, 0.0, 0.0, 0.0, 0.0, 0.0, 1.6963224037139459E9, 0.0, 2023-10-03 17:40:03.713,,,,,,,,,,,,,,,,,,,,,,,,,,,,,,,,,,,,,,,,,,,,,,,,,,,,,,,,,,,,,,,,,,,,,,,,,,,
121.0, -187500.02235174447, 66304.1029935006, -187500.02235174447, -187500.02235174447, -187500.02235174447, 27597.922396412185, -187500.02235174447, -187500.02235174447, 0.046, 0.9480000000000001, 0.002, 192.0, 0.0, 0.0, 0.0, 0.0, 0.0, 0.0, 0.0, 0.0, 0.0, 1.6963224041926537E9, 0.0, 2023-10-03 17:40:04.192,,,,,,,,,,,,,,,,,,,,,,,,,,,,,,,,,,,,,,,,,,,,,,,,,,,,,,,,,,,,,,,,,,,,,,,,,,,
122.0, -187500.02235174447, 59195.84592531275, -187500.02235174447, -187500.02235174447, -187500.02235174447, 24106.222284581934, -187500.02235174447, -187500.02235174447, 0.046, 0.9480000000000001, 0.002, 192.0, 0.0, 0.0, 0.0, 0.0, 0.0, 0.0, 0.0, 0.0, 0.0, 1.6963224041927056E9, 0.0, 2023-10-03 17:40:04.192,,,,,,,,,,,,,,,,,,,,,,,,,,,,,,,,,,,,,,,,,,,,,,,,,,,,,,,,,,,,,,,,,,,,,,,,,,,
123.0, -187500.02235174447, 44740.57045466548, -187500.02235174447, -187500.02235174447, -187500.02235174447, 16653.748351782364, -187500.02235174447, -187500.02235174447, 0.046, 0.9480000000000001, 0.002, 192.0, 0.0, 0.0, 0.0, 0.0, 0.0, 0.0, 0.0, 0.0, 0.0, 1.696322404192748E9, 0.0, 2023-10-03 17:40:04.192,,,,,,,,,,,,,,,,,,,,,,,,,,,,,,,,,,,,,,,,,,,,,,,,,,,,,,,,,,,,,,,,,,,,,,,,,,,
124.0, -187500.02235174447, 48559.63421578815, -187500.02235174447, -187500.02235174447, -187500.02235174447, 18330.218592908215, -187500.02235174447, -187500.02235174447, 0.046, 0.9480000000000001, 0.002, 192.0, 0.0, 0.0, 0.0, 0.0, 0.0, 0.0, 0.0, 0.0, 0.0, 1.6963224041927924E9, 0.0, 2023-10-03 17:40:04.192,,,,,,,,,,,,,,,,,,,,,,,,,,,,,,,,,,,,,,,,,,,,,,,,,,,,,,,,,,,,,,,,,,,,,,,,,,,
125.0, -187500.02235174447, 63827.507356108115, -187500.02235174447, -187500.02235174447, -187500.02235174447, 25927.420071055898, -187500.02235174447, -187500.02235174447, 0.032, 0.994, -0.028, 192.0, 1.0, 0.0, 31.0, 16.0, 255.0, 32.0, 0.0, 0.0, 0.0, 1.6963224041928108E9, 0.0, 2023-10-03 17:40:04.192,,,,,,,,,,,,,,,,,,,,,,,,,,,,,,,,,,,,,,,,,,,,,,,,,,,,,,,,,,,,,,,,,,,,,,,,,,,
126.0, -187500.02235174447, 60946.70277198587, -187500.02235174447, -187500.02235174447, -187500.02235174447, 24582.917938580267, -187500.02235174447, -187500.02235174447, 0.032, 0.994, -0.028, 192.0, 0.0, 0.0, 0.0, 0.0, 0.0, 0.0, 0.0, 0.0, 0.0, 1.696322404192831E9, 0.0, 2023-10-03 17:40:04.192,,,,,,,,,,,,,,,,,,,,,,,,,,,,,,,,,,,,,,,,,,,,,,,,,,,,,,,,,,,,,,,,,,,,,,,,,,,
127.0, -187500.02235174447, 45261.209638262946, -187500.02235174447, -187500.02235174447, -187500.02235174447, 16527.729216543343, -187500.02235174447, -187500.02235174447, 0.032, 0.994, -0.028, 192.0, 0.0, 0.0, 0.0, 0.0, 0.0, 0.0, 0.0, 0.0, 0.0, 1.6963224041928487E9, 0.0, 2023-10-03 17:40:04.192,,,,,,,,,,,,,,,,,,,,,,,,,,,,,,,,,,,,,,,,,,,,,,,,,,,,,,,,,,,,,,,,,,,,,,,,,,,
128.0, -187500.02235174447, 45444.20337011854, -187500.02235174447, -187500.02235174447, -187500.02235174447, 16437.606982899546, -187500.02235174447, -187500.02235174447, 0.032, 0.994, -0.028, 192.0, 0.0, 0.0, 0.0, 0.0, 0.0, 0.0, 0.0, 0.0, 0.0, 1.696322404192866E9, 0.0, 2023-10-03 17:40:04.192,,,,,,,,,,,,,,,,,,,,,,,,,,,,,,,,,,,,,,,,,,,,,,,,,,,,,,,,,,,,,,,,,,,,,,,,,,,
129.0, -187500.02235174447, 60716.65861805184, -187500.02235174447, -187500.02235174447, -187500.02235174447, 24095.605205965665, -187500.02235174447, -187500.02235174447, 0.032, 0.994, -0.028, 192.0, 0.0, 0.0, 0.0, 0.0, 0.0, 0.0, 0.0, 0.0, 0.0, 1.696322404192883E9, 0.0, 2023-10-03 17:40:04.192,,,,,,,,,,,,,,,,,,,,,,,,,,,,,,,,,,,,,,,,,,,,,,,,,,,,,,,,,,,,,,,,,,,,,,,,,,,
130.0, -187500.02235174447, 62244.42270331654, -187500.02235174447, -187500.02235174447, -187500.02235174447, 25014.23955133433, -187500.02235174447, -187500.02235174447, 0.032, 0.994, -0.028, 192.0, 0.0, 0.0, 0.0, 0.0, 0.0, 0.0, 0.0, 0.0, 0.0, 1.6963224041929E9, 0.0, 2023-10-03 17:40:04.192,,,,,,,,,,,,,,,,,,,,,,,,,,,,,,,,,,,,,,,,,,,,,,,,,,,,,,,,,,,,,,,,,,,,,,,,,,,
131.0, -187500.02235174447, 46386.08352972073, -187500.02235174447, -187500.02235174447, -187500.02235174447, 16928.74186381601, -187500.02235174447, -187500.02235174447, 0.032, 0.994, -0.028, 192.0, 0.0, 0.0, 0.0, 0.0, 0.0, 0.0, 0.0, 0.0, 0.0, 1.696322404192917E9, 0.0, 2023-10-03 17:40:04.192,,,,,,,,,,,,,,,,,,,,,,,,,,,,,,,,,,,,,,,,,,,,,,,,,,,,,,,,,,,,,,,,,,,,,,,,,,,
132.0, -187500.02235174447, 42815.72762915226, -187500.02235174447, -187500.02235174447, -187500.02235174447, 14950.277203354502, -187500.02235174447, -187500.02235174447, 0.032, 0.994, -0.028, 192.0, 0.0, 0.0, 0.0, 0.0, 0.0, 0.0, 0.0, 0.0, 0.0, 1.6963224041929343E9, 0.0, 2023-10-03 17:40:04.192,,,,,,,,,,,,,,,,,,,,,,,,,,,,,,,,,,,,,,,,,,,,,,,,,,,,,,,,,,,,,,,,,,,,,,,,,,,
133.0, -187500.02235174447, 57072.40785031413, -187500.02235174447, -187500.02235174447, -187500.02235174447, 22125.790670608363, -187500.02235174447, -187500.02235174447, 0.032, 0.994, -0.028, 192.0, 0.0, 0.0, 0.0, 0.0, 0.0, 0.0, 0.0, 0.0, 0.0, 1.6963224041929507E9, 0.0, 2023-10-03 17:40:04.192,,,,,,,,,,,,,,,,,,,,,,,,,,,,,,,,,,,,,,,,,,,,,,,,,,,,,,,,,,,,,,,,,,,,,,,,,,,
134.0, -187500.02235174447, 62893.2938448541, -187500.02235174447, -187288.64190443064, -187500.02235174447, 25216.925170055052, -187500.02235174447, -187500.02235174447, 0.032, 0.994, -0.028, 192.0, 0.0, 0.0, 0.0, 0.0, 0.0, 0.0, 0.0, 0.0, 0.0, 1.6963224041929677E9, 0.0, 2023-10-03 17:40:04.192,,,,,,,,,,,,,,,,,,,,,,,,,,,,,,,,,,,,,,,,,,,,,,,,,,,,,,,,,,,,,,,,,,,,,,,,,,,
135.0, -187500.02235174447, 47872.47453599865, -187500.02235174447, -187500.02235174447, -187500.02235174447, 17559.105760944578, -187500.02235174447, -187500.02235174447, 0.018000000000000002, 1.034, -0.046, 192.0, 0.0, 144.0, 32.0, 80.0, 254.0, 144.0, 0.0, 0.0, 0.0, 1.6963224041929848E9, 0.0, 2023-10-03 17:40:04.192,,,,,,,,,,,,,,,,,,,,,,,,,,,,,,,,,,,,,,,,,,,,,,,,,,,,,,,,,,,,,,,,,,,,,,,,,,,
136.0, -187500.02235174447, 40756.48376422927, -187500.02235174447, -187500.02235174447, -187500.02235174447, 13694.220923688523, -187500.02235174447, -187500.02235174447, 0.018000000000000002, 1.034, -0.046, 192.0, 0.0, 0.0, 0.0, 0.0, 0.0, 0.0, 0.0, 0.0, 0.0, 1.6963224041930022E9, 0.0, 2023-10-03 17:40:04.193,,,,,,,,,,,,,,,,,,,,,,,,,,,,,,,,,,,,,,,,,,,,,,,,,,,,,,,,,,,,,,,,,,,,,,,,,,,
137.0, -187500.02235174447, 53103.207421685154, -187500.02235174447, -187500.02235174447, -187500.02235174447, 19825.751462668355, -187500.02235174447, -187500.02235174447, 0.018000000000000002, 1.034, -0.046, 192.0, 0.0, 0.0, 0.0, 0.0, 0.0, 0.0, 0.0, 0.0, 0.0, 1.6963224041930194E9, 0.0, 2023-10-03 17:40:04.193,,,,,,,,,,,,,,,,,,,,,,,,,,,,,,,,,,,,,,,,,,,,,,,,,,,,,,,,,,,,,,,,,,,,,,,,,,,
138.0, -187500.02235174447, 62651.20210065867, -187500.02235174447, -185531.90654896578, -187500.02235174447, 24773.42185657285, -187500.02235174447, -187500.02235174447, 0.018000000000000002, 1.034, -0.046, 192.0, 0.0, 0.0, 0.0, 0.0, 0.0, 0.0, 0.0, 0.0, 0.0, 1.696322404193036E9, 0.0, 2023-10-03 17:40:04.193,,,,,,,,,,,,,,,,,,,,,,,,,,,,,,,,,,,,,,,,,,,,,,,,,,,,,,,,,,,,,,,,,,,,,,,,,,,
139.0, -187500.02235174447, 49732.16202642465, -187500.02235174447, -187500.02235174447, -187500.02235174447, 18119.933381072686, -187500.02235174447, -187500.02235174447, 0.018000000000000002, 1.034, -0.046, 192.0, 0.0, 0.0, 0.0, 0.0, 0.0, 0.0, 0.0, 0.0, 0.0, 1.6963224041930525E9, 0.0, 2023-10-03 17:40:04.193,,,,,,,,,,,,,,,,,,,,,,,,,,,,,,,,,,,,,,,,,,,,,,,,,,,,,,,,,,,,,,,,,,,,,,,,,,,
140.0, -187500.02235174447, 39692.20545198983, -187500.02235174447, -187500.02235174447, -187500.02235174447, 12621.02426541141, -187500.02235174447, -187500.02235174447, 0.018000000000000002, 1.034, -0.046, 192.0, 0.0, 0.0, 0.0, 0.0, 0.0, 0.0, 0.0, 0.0, 0.0, 1.6963224041930697E9, 0.0, 2023-10-03 17:40:04.193,,,,,,,,,,,,,,,,,,,,,,,,,,,,,,,,,,,,,,,,,,,,,,,,,,,,,,,,,,,,,,,,,,,,,,,,,,,
141.0, -187500.02235174447, 49427.88772915456, -187500.02235174447, -187500.02235174447, -187500.02235174447, 17360.1975870368, -187500.02235174447, -187500.02235174447, 0.018000000000000002, 1.034, -0.046, 192.0, 0.0, 0.0, 0.0, 0.0, 0.0, 0.0, 0.0, 0.0, 0.0, 1.6963224041930869E9, 0.0, 2023-10-03 17:40:04.193,,,,,,,,,,,,,,,,,,,,,,,,,,,,,,,,,,,,,,,,,,,,,,,,,,,,,,,,,,,,,,,,,,,,,,,,,,,
142.0, -187500.02235174447, 62012.031616214714, -187500.02235174447, -184715.86671064695, -187500.02235174447, 23755.27754488916, -187500.02235174447, -187500.02235174447, 0.018000000000000002, 1.034, -0.046, 192.0, 0.0, 0.0, 0.0, 0.0, 0.0, 0.0, 0.0, 0.0, 0.0, 1.6963224041931036E9, 0.0, 2023-10-03 17:40:04.193,,,,,,,,,,,,,,,,,,,,,,,,,,,,,,,,,,,,,,,,,,,,,,,,,,,,,,,,,,,,,,,,,,,,,,,,,,,
143.0, -187500.02235174447, 52056.184656165206, -187500.02235174447, -187500.02235174447, -187500.02235174447, 18671.37326852957, -187500.02235174447, -187500.02235174447, 0.018000000000000002, 1.034, -0.046, 192.0, 0.0, 0.0, 0.0, 0.0, 0.0, 0.0, 0.0, 0.0, 0.0, 1.6963224041931207E9, 0.0, 2023-10-03 17:40:04.193,,,,,,,,,,,,,,,,,,,,,,,,,,,,,,,,,,,,,,,,,,,,,,,,,,,,,,,,,,,,,,,,,,,,,,,,,,,
144.0, -187500.02235174447, 39250.467926319594, -187500.02235174447, -187500.02235174447, -187500.02235174447, 11814.305104530467, -187500.02235174447, -187500.02235174447, 0.018000000000000002, 1.034, -0.046, 192.0, 0.0, 0.0, 0.0, 0.0, 0.0, 0.0, 0.0, 0.0, 0.0, 1.696322404193138E9, 0.0, 2023-10-03 17:40:04.193,,,,,,,,,,,,,,,,,,,,,,,,,,,,,,,,,,,,,,,,,,,,,,,,,,,,,,,,,,,,,,,,,,,,,,,,,,,
145.0, -187500.02235174447, 45801.317191280985, -187500.02235174447, -187500.02235174447, -187500.02235174447, 14890.642749147744, -187500.02235174447, -187500.02235174447, 0.02, 1.022, -0.062, 192.0, 0.0, 160.0, 31.0, 240.0, 254.0, 16.0, 0.0, 0.0, 0.0, 1.6963224041931543E9, 0.0, 2023-10-03 17:40:04.193,,,,,,,,,,,,,,,,,,,,,,,,,,,,,,,,,,,,,,,,,,,,,,,,,,,,,,,,,,,,,,,,,,,,,,,,,,,
146.0, -187500.02235174447, 60325.972476717536, -187500.02235174447, -184579.0740345805, -187500.02235174447, 22208.11214543726, -187500.02235174447, -187500.02235174447, 0.02, 1.022, -0.062, 192.0, 0.0, 0.0, 0.0, 0.0, 0.0, 0.0, 0.0, 0.0, 0.0, 1.696322404193171E9, 0.0, 2023-10-03 17:40:04.193,,,,,,,,,,,,,,,,,,,,,,,,,,,,,,,,,,,,,,,,,,,,,,,,,,,,,,,,,,,,,,,,,,,,,,,,,,,
147.0, -187500.02235174447, 54210.088158856415, -187500.02235174447, -186853.2522741857, -187500.02235174447, 19106.584084818853, -187500.02235174447, -187500.02235174447, 0.02, 1.022, -0.062, 192.0, 0.0, 0.0, 0.0, 0.0, 0.0, 0.0, 0.0, 0.0, 0.0, 1.6963224041931877E9, 0.0, 2023-10-03 17:40:04.193,,,,,,,,,,,,,,,,,,,,,,,,,,,,,,,,,,,,,,,,,,,,,,,,,,,,,,,,,,,,,,,,,,,,,,,,,,,
148.0, -187500.02235174447, 39457.37802474237, -187500.02235174447, -187500.02235174447, -187500.02235174447, 11296.459888989913, -187500.02235174447, -187500.02235174447, 0.02, 1.022, -0.062, 192.0, 0.0, 0.0, 0.0, 0.0, 0.0, 0.0, 0.0, 0.0, 0.0, 1.6963224041932037E9, 0.0, 2023-10-03 17:40:04.193,,,,,,,,,,,,,,,,,,,,,,,,,,,,,,,,,,,,,,,,,,,,,,,,,,,,,,,,,,,,,,,,,,,,,,,,,,,
149.0, -187500.02235174447, 42500.32216314342, -187500.02235174447, -187500.02235174447, -187500.02235174447, 12565.323718228785, -187500.02235174447, -187500.02235174447, 0.02, 1.022, -0.062, 192.0, 0.0, 0.0, 0.0, 0.0, 0.0, 0.0, 0.0, 0.0, 0.0, 1.6963224041932201E9, 0.0, 2023-10-03 17:40:04.193,,,,,,,,,,,,,,,,,,,,,,,,,,,,,,,,,,,,,,,,,,,,,,,,,,,,,,,,,,,,,,,,,,,,,,,,,,,
150.0, -187500.02235174447, 57870.8568657466, -187500.02235174447, -184899.57569832515, -187500.02235174447, 20288.54433161549, -187500.02235174447, -187500.02235174447, 0.02, 1.022, -0.062, 192.0, 0.0, 0.0, 0.0, 0.0, 0.0, 0.0, 0.0, 0.0, 0.0, 1.696322404193236E9, 0.0, 2023-10-03 17:40:04.193,,,,,,,,,,,,,,,,,,,,,,,,,,,,,,,,,,,,,,,,,,,,,,,,,,,,,,,,,,,,,,,,,,,,,,,,,,,
151.0, -187500.02235174447, 56003.681540928075, -187500.02235174447, -185285.56797332384, -187500.02235174447, 19390.56299812353, -187500.02235174447, -187500.02235174447, 0.02, 1.022, -0.062, 192.0, 0.0, 0.0, 0.0, 0.0, 0.0, 0.0, 0.0, 0.0, 0.0, 1.6963224041932518E9, 0.0, 2023-10-03 17:40:04.193,,,,,,,,,,,,,,,,,,,,,,,,,,,,,,,,,,,,,,,,,,,,,,,,,,,,,,,,,,,,,,,,,,,,,,,,,,,
152.0, -187500.02235174447, 40243.15360106869, -187500.02235174447, -187500.02235174447, -187500.02235174447, 11107.431186131382, -187500.02235174447, -187500.02235174447, 0.02, 1.022, -0.062, 192.0, 0.0, 0.0, 0.0, 0.0, 0.0, 0.0, 0.0, 0.0, 0.0, 1.6963224041932683E9, 0.0, 2023-10-03 17:40:04.193,,,,,,,,,,,,,,,,,,,,,,,,,,,,,,,,,,,,,,,,,,,,,,,,,,,,,,,,,,,,,,,,,,,,,,,,,,,
153.0, -187500.02235174447, 39624.211445356785, -187500.02235174447, -187500.02235174447, -187500.02235174447, 10474.228617456987, -187500.02235174447, -187500.02235174447, 0.02, 1.022, -0.062, 192.0, 0.0, 0.0, 0.0, 0.0, 0.0, 0.0, 0.0, 0.0, 0.0, 1.6963224041932843E9, 0.0, 2023-10-03 17:40:04.193,,,,,,,,,,,,,,,,,,,,,,,,,,,,,,,,,,,,,,,,,,,,,,,,,,,,,,,,,,,,,,,,,,,,,,,,,,,
154.0, -187500.02235174447, 54759.561092801225, -187500.02235174447, -185597.12893928637, -187500.02235174447, 18022.502126992003, -187500.02235174447, -187500.02235174447, 0.02, 1.022, -0.062, 192.0, 0.0, 0.0, 0.0, 0.0, 0.0, 0.0, 0.0, 0.0, 0.0, 1.6963224041933E9, 0.0, 2023-10-03 17:40:04.193,,,,,,,,,,,,,,,,,,,,,,,,,,,,,,,,,,,,,,,,,,,,,,,,,,,,,,,,,,,,,,,,,,,,,,,,,,,
155.0, -187500.02235174447, 57254.485160647055, -187500.02235174447, -184077.5902959812, -187500.02235174447, 19340.808014966013, -187500.02235174447, -187500.02235174447, 0.032, 0.992, -0.066, 192.0, 1.0, 0.0, 31.0, 0.0, 253.0, 240.0, 0.0, 0.0, 0.0, 1.696322404193316E9, 0.0, 2023-10-03 17:40:04.193,,,,,,,,,,,,,,,,,,,,,,,,,,,,,,,,,,,,,,,,,,,,,,,,,,,,,,,,,,,,,,,,,,,,,,,,,,,
156.0, -187500.02235174447, 41531.619910194866, -187500.02235174447, -187500.02235174447, -187500.02235174447, 11142.434017948392, -187500.02235174447, -187500.02235174447, 0.032, 0.992, -0.066, 192.0, 0.0, 0.0, 0.0, 0.0, 0.0, 0.0, 0.0, 0.0, 0.0, 1.6963224041933324E9, 0.0, 2023-10-03 17:40:04.193,,,,,,,,,,,,,,,,,,,,,,,,,,,,,,,,,,,,,,,,,,,,,,,,,,,,,,,,,,,,,,,,,,,,,,,,,,,
157.0, -187500.02235174447, 37266.460033233176, -187500.02235174447, -187500.02235174447, -187500.02235174447, 8649.275737914531, -187500.02235174447, -187500.02235174447, 0.032, 0.992, -0.066, 192.0, 0.0, 0.0, 0.0, 0.0, 0.0, 0.0, 0.0, 0.0, 0.0, 1.6963224041933477E9, 0.0, 2023-10-03 17:40:04.193,,,,,,,,,,,,,,,,,,,,,,,,,,,,,,,,,,,,,,,,,,,,,,,,,,,,,,,,,,,,,,,,,,,,,,,,,,,
158.0, -187500.02235174447, 51148.88264523538, -187500.02235174447, -186547.79333445948, -187500.02235174447, 15521.856012565615, -187500.02235174447, -187500.02235174447, 0.032, 0.992, -0.066, 192.0, 0.0, 0.0, 0.0, 0.0, 0.0, 0.0, 0.0, 0.0, 0.0, 1.6963224041933641E9, 0.0, 2023-10-03 17:40:04.193,,,,,,,,,,,,,,,,,,,,,,,,,,,,,,,,,,,,,,,,,,,,,,,,,,,,,,,,,,,,,,,,,,,,,,,,,,,
159.0, -187500.02235174447, 57831.62955422754, -187500.02235174447, -183220.17737867564, -187500.02235174447, 18958.66024001363, -187500.02235174447, -187500.02235174447, 0.032, 0.992, -0.066, 192.0, 0.0, 0.0, 0.0, 0.0, 0.0, 0.0, 0.0, 0.0, 0.0, 1.6963224041933813E9, 0.0, 2023-10-03 17:40:04.193,,,,,,,,,,,,,,,,,,,,,,,,,,,,,,,,,,,,,,,,,,,,,,,,,,,,,,,,,,,,,,,,,,,,,,,,,,,
160.0, -187500.02235174447, 43268.641027050144, -187500.02235174447, -187500.02235174447, -187500.02235174447, 11433.029047611839, -187500.02235174447, -187500.02235174447, 0.032, 0.992, -0.066, 192.0, 0.0, 0.0, 0.0, 0.0, 0.0, 0.0, 0.0, 0.0, 0.0, 1.6963224041933978E9, 0.0, 2023-10-03 17:40:04.193,,,,,,,,,,,,,,,,,,,,,,,,,,,,,,,,,,,,,,,,,,,,,,,,,,,,,,,,,,,,,,,,,,,,,,,,,,,
161.0, -187500.02235174447, 35513.546826070175, -187500.02235174447, -187500.02235174447, -187500.02235174447, 7148.020821573833, -187500.02235174447, -187500.02235174447, 0.032, 0.992, -0.066, 192.0, 0.0, 0.0, 0.0, 0.0, 0.0, 0.0, 0.0, 0.0, 0.0, 1.6963224041934147E9, 0.0, 2023-10-03 17:40:04.193,,,,,,,,,,,,,,,,,,,,,,,,,,,,,,,,,,,,,,,,,,,,,,,,,,,,,,,,,,,,,,,,,,,,,,,,,,,
162.0, -187500.02235174447, 47294.88310752906, -187500.02235174447, -187500.02235174447, -187500.02235174447, 12925.007990003585, -187500.02235174447, -187500.02235174447, 0.032, 0.992, -0.066, 192.0, 0.0, 0.0, 0.0, 0.0, 0.0, 0.0, 0.0, 0.0, 0.0, 1.6963224041934314E9, 0.0, 2023-10-03 17:40:04.193,,,,,,,,,,,,,,,,,,,,,,,,,,,,,,,,,,,,,,,,,,,,,,,,,,,,,,,,,,,,,,,,,,,,,,,,,,,
163.0, -187500.02235174447, 57504.981160757685, -187500.02235174447, -182790.08511186662, -187500.02235174447, 18108.95867454513, -187500.02235174447, -187500.02235174447, 0.032, 0.992, -0.066, 192.0, 0.0, 0.0, 0.0, 0.0, 0.0, 0.0, 0.0, 0.0, 0.0, 1.6963224041934483E9, 0.0, 2023-10-03 17:40:04.193,,,,,,,,,,,,,,,,,,,,,,,,,,,,,,,,,,,,,,,,,,,,,,,,,,,,,,,,,,,,,,,,,,,,,,,,,,,
164.0, -187500.02235174447, 45164.04660511573, -187500.02235174447, -187500.02235174447, -187500.02235174447, 11788.175915262213, -187500.02235174447, -187500.02235174447, 0.032, 0.992, -0.066, 192.0, 0.0, 0.0, 0.0, 0.0, 0.0, 0.0, 0.0, 0.0, 0.0, 1.6963224041934652E9, 0.0, 2023-10-03 17:40:04.193,,,,,,,,,,,,,,,,,,,,,,,,,,,,,,,,,,,,,,,,,,,,,,,,,,,,,,,,,,,,,,,,,,,,,,,,,,,
165.0, -187500.02235174447, 34313.548721498104, -187500.02235174447, -187500.02235174447, -187500.02235174447, 5967.356975955603, -187500.02235174447, -187500.02235174447, 0.036000000000000004, 1.018, -0.056, 192.0, 1.0, 32.0, 31.0, 208.0, 254.0, 64.0, 0.0, 0.0, 0.0, 1.696322404193482E9, 0.0, 2023-10-03 17:40:04.193,,,,,,,,,,,,,,,,,,,,,,,,,,,,,,,,,,,,,,,,,,,,,,,,,,,,,,,,,,,,,,,,,,,,,,,,,,,
166.0, -187500.02235174447, 43325.973251578005, -187500.02235174447, -187500.02235174447, -187500.02235174447, 10308.289266620788, -187500.02235174447, -187500.02235174447, 0.036000000000000004, 1.018, -0.056, 192.0, 0.0, 0.0, 0.0, 0.0, 0.0, 0.0, 0.0, 0.0, 0.0, 1.696322404193499E9, 0.0, 2023-10-03 17:40:04.193,,,,,,,,,,,,,,,,,,,,,,,,,,,,,,,,,,,,,,,,,,,,,,,,,,,,,,,,,,,,,,,,,,,,,,,,,,,
167.0, -187500.02235174447, 56243.44870370015, -187500.02235174447, -182764.71588190985, -187500.02235174447, 16819.061853773816, -187500.02235174447, -187500.02235174447, 0.036000000000000004, 1.018, -0.056, 192.0, 0.0, 0.0, 0.0, 0.0, 0.0, 0.0, 0.0, 0.0, 0.0, 1.6963224041935158E9, 0.0, 2023-10-03 17:40:04.193,,,,,,,,,,,,,,,,,,,,,,,,,,,,,,,,,,,,,,,,,,,,,,,,,,,,,,,,,,,,,,,,,,,,,,,,,,,
168.0, -187500.02235174447, 47125.255718857734, -187500.02235174447, -186420.27663234196, -187500.02235174447, 12200.140917317978, -187500.02235174447, -187500.02235174447, 0.036000000000000004, 1.018, -0.056, 192.0, 0.0, 0.0, 0.0, 0.0, 0.0, 0.0, 0.0, 0.0, 0.0, 1.6963224041935325E9, 0.0, 2023-10-03 17:40:04.193,,,,,,,,,,,,,,,,,,,,,,,,,,,,,,,,,,,,,,,,,,,,,,,,,,,,,,,,,,,,,,,,,,,,,,,,,,,
169.0, -187500.02235174447, 33800.196206593064, -187500.02235174447, -187500.02235174447, -187500.02235174447, 5136.944965952035, -187500.02235174447, -187500.02235174447, 0.036000000000000004, 1.018, -0.056, 192.0, 0.0, 0.0, 0.0, 0.0, 0.0, 0.0, 0.0, 0.0, 0.0, 1.6963224041935492E9, 0.0, 2023-10-03 17:40:04.193,,,,,,,,,,,,,,,,,,,,,,,,,,,,,,,,,,,,,,,,,,,,,,,,,,,,,,,,,,,,,,,,,,,,,,,,,,,
170.0, -187500.02235174447, 39505.7248479992, -187500.02235174447, -187500.02235174447, -187500.02235174447, 7747.58401484299, -187500.02235174447, -187500.02235174447, 0.036000000000000004, 1.018, -0.056, 192.0, 0.0, 0.0, 0.0, 0.0, 0.0, 0.0, 0.0, 0.0, 0.0, 1.696322404193566E9, 0.0, 2023-10-03 17:40:04.193,,,,,,,,,,,,,,,,,,,,,,,,,,,,,,,,,,,,,,,,,,,,,,,,,,,,,,,,,,,,,,,,,,,,,,,,,,,
171.0, -187500.02235174447, 54243.504016817096, -187500.02235174447, -183120.28743270488, -187500.02235174447, 15109.198106431737, -187500.02235174447, -187500.02235174447, 0.036000000000000004, 1.018, -0.056, 192.0, 0.0, 0.0, 0.0, 0.0, 0.0, 0.0, 0.0, 0.0, 0.0, 1.6963224041935828E9, 0.0, 2023-10-03 17:40:04.193,,,,,,,,,,,,,,,,,,,,,,,,,,,,,,,,,,,,,,,,,,,,,,,,,,,,,,,,,,,,,,,,,,,,,,,,,,,
172.0, -187500.02235174447, 49007.83139560597, -187500.02235174447, -185034.5802348352, -187500.02235174447, 12493.686377249525, -187500.02235174447, -187500.02235174447, 0.036000000000000004, 1.018, -0.056, 192.0, 0.0, 0.0, 0.0, 0.0, 0.0, 0.0, 0.0, 0.0, 0.0, 1.6963224041935997E9, 0.0, 2023-10-03 17:40:04.193,,,,,,,,,,,,,,,,,,,,,,,,,,,,,,,,,,,,,,,,,,,,,,,,,,,,,,,,,,,,,,,,,,,,,,,,,,,
173.0, -187500.02235174447, 34029.994491338075, -187500.02235174447, -187500.02235174447, -187500.02235174447, 4629.58271856102, -187500.02235174447, -187500.02235174447, 0.036000000000000004, 1.018, -0.056, 192.0, 0.0, 0.0, 0.0, 0.0, 0.0, 0.0, 0.0, 0.0, 0.0, 1.6963224041936162E9, 0.0, 2023-10-03 17:40:04.193,,,,,,,,,,,,,,,,,,,,,,,,,,,,,,,,,,,,,,,,,,,,,,,,,,,,,,,,,,,,,,,,,,,,,,,,,,,
174.0, -187500.02235174447, 36240.06792784547, -187500.02235174447, -187500.02235174447, -187500.02235174447, 5454.943234317689, -187500.02235174447, -187500.02235174447, 0.036000000000000004, 1.018, -0.056, 192.0, 0.0, 0.0, 0.0, 0.0, 0.0, 0.0, 0.0, 0.0, 0.0, 1.6963224041936336E9, 0.0, 2023-10-03 17:40:04.193,,,,,,,,,,,,,,,,,,,,,,,,,,,,,,,,,,,,,,,,,,,,,,,,,,,,,,,,,,,,,,,,,,,,,,,,,,,
175.0, -187500.02235174447, 51593.235325006885, -187500.02235174447, -183771.77372834372, -187500.02235174447, 13057.86675904593, -187500.02235174447, -187500.02235174447, 0.044, 1.006, -0.046, 192.0, 1.0, 96.0, 31.0, 112.0, 254.0, 144.0, 0.0, 0.0, 0.0, 1.6963224041936502E9, 0.0, 2023-10-03 17:40:04.193,,,,,,,,,,,,,,,,,,,,,,,,,,,,,,,,,,,,,,,,,,,,,,,,,,,,,,,,,,,,,,,,,,,,,,,,,,,
176.0, -187500.02235174447, 50722.1207883502, -187500.02235174447, -183755.0769752356, -187500.02235174447, 12666.465361889048, -187500.02235174447, -187500.02235174447, 0.044, 1.006, -0.046, 192.0, 0.0, 0.0, 0.0, 0.0, 0.0, 0.0, 0.0, 0.0, 0.0, 1.6963224041936667E9, 0.0, 2023-10-03 17:40:04.193,,,,,,,,,,,,,,,,,,,,,,,,,,,,,,,,,,,,,,,,,,,,,,,,,,,,,,,,,,,,,,,,,,,,,,,,,,,
177.0, -187500.02235174447, 34925.897112595696, -187500.02235174447, -187500.02235174447, -187500.02235174447, 4473.545190518522, -187500.02235174447, -187500.02235174447, 0.044, 1.006, -0.046, 192.0, 0.0, 0.0, 0.0, 0.0, 0.0, 0.0, 0.0, 0.0, 0.0, 1.6963224041936839E9, 0.0, 2023-10-03 17:40:04.193,,,,,,,,,,,,,,,,,,,,,,,,,,,,,,,,,,,,,,,,,,,,,,,,,,,,,,,,,,,,,,,,,,,,,,,,,,,
178.0, -187500.02235174447, 33427.21264686735, -187500.02235174447, -187500.02235174447, -187500.02235174447, 3392.1007385374, -187500.02235174447, -187500.02235174447, 0.044, 1.006, -0.046, 192.0, 0.0, 0.0, 0.0, 0.0, 0.0, 0.0, 0.0, 0.0, 0.0, 1.6963224041937003E9, 0.0, 2023-10-03 17:40:04.193,,,,,,,,,,,,,,,,,,,,,,,,,,,,,,,,,,,,,,,,,,,,,,,,,,,,,,,,,,,,,,,,,,,,,,,,,,,
179.0, -187500.02235174447, 48311.70866628989, -187500.02235174447, -184715.48673099122, -187500.02235174447, 10703.602219057348, -187500.02235174447, -187500.02235174447, 0.044, 1.006, -0.046, 192.0, 0.0, 0.0, 0.0, 0.0, 0.0, 0.0, 0.0, 0.0, 0.0, 1.6963224041937175E9, 0.0, 2023-10-03 17:40:04.193,,,,,,,,,,,,,,,,,,,,,,,,,,,,,,,,,,,,,,,,,,,,,,,,,,,,,,,,,,,,,,,,,,,,,,,,,,,
180.0, -187500.02235174447, 51844.44658094008, -187500.02235174447, -182807.94415568642, -187500.02235174447, 12514.875830993156, -187500.02235174447, -187500.02235174447, 0.044, 1.006, -0.046, 192.0, 0.0, 0.0, 0.0, 0.0, 0.0, 0.0, 0.0, 0.0, 0.0, 1.696322404193734E9, 0.0, 2023-10-03 17:40:04.193,,,,,,,,,,,,,,,,,,,,,,,,,,,,,,,,,,,,,,,,,,,,,,,,,,,,,,,,,,,,,,,,,,,,,,,,,,,
181.0, -187500.02235174447, 36321.00359451814, -187500.02235174447, -187500.02235174447, -187500.02235174447, 4534.520749392599, -187500.02235174447, -187500.02235174447, 0.044, 1.006, -0.046, 192.0, 0.0, 0.0, 0.0, 0.0, 0.0, 0.0, 0.0, 0.0, 0.0, 1.6963224041937509E9, 0.0, 2023-10-03 17:40:04.193,,,,,,,,,,,,,,,,,,,,,,,,,,,,,,,,,,,,,,,,,,,,,,,,,,,,,,,,,,,,,,,,,,,,,,,,,,,
182.0, -187500.02235174447, 31211.66303296841, -187500.02235174447, -187500.02235174447, -187500.02235174447, 1628.0116591467452, -187500.02235174447, -187500.02235174447, 0.044, 1.006, -0.046, 192.0, 0.0, 0.0, 0.0, 0.0, 0.0, 0.0, 0.0, 0.0, 0.0, 1.6963224041937675E9, 0.0, 2023-10-03 17:40:04.193,,,,,,,,,,,,,,,,,,,,,,,,,,,,,,,,,,,,,,,,,,,,,,,,,,,,,,,,,,,,,,,,,,,,,,,,,,,
183.0, -187500.02235174447, 44731.85327432791, -187500.02235174447, -185768.20919134727, -187500.02235174447, 8227.654782254074, -187500.02235174447, -187500.02235174447, 0.044, 1.006, -0.046, 192.0, 0.0, 0.0, 0.0, 0.0, 0.0, 0.0, 0.0, 0.0, 0.0, 1.6963224041937845E9, 0.0, 2023-10-03 17:40:04.193,,,,,,,,,,,,,,,,,,,,,,,,,,,,,,,,,,,,,,,,,,,,,,,,,,,,,,,,,,,,,,,,,,,,,,,,,,,
184.0, -187500.02235174447, 52250.5330742041, -187500.02235174447, -182173.4004823447, -187500.02235174447, 12020.052912241568, -187500.02235174447, -187500.02235174447, 0.044, 1.006, -0.046, 192.0, 0.0, 0.0, 0.0, 0.0, 0.0, 0.0, 0.0, 0.0, 0.0, 1.6963224041938014E9, 0.0, 2023-10-03 17:40:04.193,,,,,,,,,,,,,,,,,,,,,,,,,,,,,,,,,,,,,,,,,,,,,,,,,,,,,,,,,,,,,,,,,,,,,,,,,,,
185.0, -187500.02235174447, 38084.377418086224, -187500.02235174447, -187500.02235174447, -187500.02235174447, 4792.7728048292165, -187500.02235174447, -187500.02235174447, 0.03, 0.996, -0.044, 192.0, 0.0, 240.0, 31.0, 32.0, 254.0, 160.0, 0.0, 0.0, 0.0, 1.69632240419382E9, 0.0, 2023-10-03 17:40:04.193,,,,,,,,,,,,,,,,,,,,,,,,,,,,,,,,,,,,,,,,,,,,,,,,,,,,,,,,,,,,,,,,,,,,,,,,,,,
186.0, -187500.02235174447, 29591.653298336663, -187500.02235174447, -187500.02235174447, -187500.02235174447, 184.60305745638104, -187500.02235174447, -187500.02235174447, 0.03, 0.996, -0.044, 192.0, 0.0, 0.0, 0.0, 0.0, 0.0, 0.0, 0.0, 0.0, 0.0, 1.6963224041938367E9, 0.0, 2023-10-03 17:40:04.193,,,,,,,,,,,,,,,,,,,,,,,,,,,,,,,,,,,,,,,,,,,,,,,,,,,,,,,,,,,,,,,,,,,,,,,,,,,
187.0, -187500.02235174447, 40865.873201593546, -187500.02235174447, -186962.10526968306, -187500.02235174447, 5612.657143194336, -187500.02235174447, -187500.02235174447, 0.03, 0.996, -0.044, 192.0, 0.0, 0.0, 0.0, 0.0, 0.0, 0.0, 0.0, 0.0, 0.0, 1.696322404193854E9, 0.0, 2023-10-03 17:40:04.193,,,,,,,,,,,,,,,,,,,,,,,,,,,,,,,,,,,,,,,,,,,,,,,,,,,,,,,,,,,,,,,,,,,,,,,,,,,
188.0, -187500.02235174447, 51809.399045634156, -187500.02235174447, -181952.0511570038, -187500.02235174447, 11070.036717657653, -187500.02235174447, -187500.02235174447, 0.03, 0.996, -0.044, 192.0, 0.0, 0.0, 0.0, 0.0, 0.0, 0.0, 0.0, 0.0, 0.0, 1.696322404193871E9, 0.0, 2023-10-03 17:40:04.193,,,,,,,,,,,,,,,,,,,,,,,,,,,,,,,,,,,,,,,,,,,,,,,,,,,,,,,,,,,,,,,,,,,,,,,,,,,
189.0, -187500.02235174447, 40062.35034016971, -187500.02235174447, -186797.79759619207, -187500.02235174447, 5135.626213029172, -187500.02235174447, -187500.02235174447, 0.03, 0.996, -0.044, 192.0, 0.0, 0.0, 0.0, 0.0, 0.0, 0.0, 0.0, 0.0, 0.0, 1.696322404193888E9, 0.0, 2023-10-03 17:40:04.193,,,,,,,,,,,,,,,,,,,,,,,,,,,,,,,,,,,,,,,,,,,,,,,,,,,,,,,,,,,,,,,,,,,,,,,,,,,
190.0, -187500.02235174447, 28623.174562832664, -187500.02235174447, -187500.02235174447, -187500.02235174447, -938.2815287448799, -187500.02235174447, -187500.02235174447, 0.03, 0.996, -0.044, 192.0, 0.0, 0.0, 0.0, 0.0, 0.0, 0.0, 0.0, 0.0, 0.0, 1.6963224041939049E9, 0.0, 2023-10-03 17:40:04.193,,,,,,,,,,,,,,,,,,,,,,,,,,,,,,,,,,,,,,,,,,,,,,,,,,,,,,,,,,,,,,,,,,,,,,,,,,,
191.0, -187500.02235174447, 37001.94948934907, -187500.02235174447, -187500.02235174447, -187500.02235174447, 3010.981143829959, -187500.02235174447, -187500.02235174447, 0.03, 0.996, -0.044, 192.0, 0.0, 0.0, 0.0, 0.0, 0.0, 0.0, 0.0, 0.0, 0.0, 1.6963224041939216E9, 0.0, 2023-10-03 17:40:04.193,,,,,,,,,,,,,,,,,,,,,,,,,,,,,,,,,,,,,,,,,,,,,,,,,,,,,,,,,,,,,,,,,,,,,,,,,,,
192.0, -187500.02235174447, 50524.7772365543, -187500.02235174447, -182109.40743796914, -187500.02235174447, 9703.987503527105, -187500.02235174447, -187500.02235174447, 0.03, 0.996, -0.044, 192.0, 0.0, 0.0, 0.0, 0.0, 0.0, 0.0, 0.0, 0.0, 0.0, 1.6963224041939385E9, 0.0, 2023-10-03 17:40:04.193,,,,,,,,,,,,,,,,,,,,,,,,,,,,,,,,,,,,,,,,,,,,,,,,,,,,,,,,,,,,,,,,,,,,,,,,,,,
193.0, -187500.02235174447, 42165.31421724728, -187500.02235174447, -185422.69592555714, -187500.02235174447, 5527.251127630607, -187500.02235174447, -187500.02235174447, 0.03, 0.996, -0.044, 192.0, 0.0, 0.0, 0.0, 0.0, 0.0, 0.0, 0.0, 0.0, 0.0, 1.6963224041939552E9, 0.0, 2023-10-03 17:40:04.193,,,,,,,,,,,,,,,,,,,,,,,,,,,,,,,,,,,,,,,,,,,,,,,,,,,,,,,,,,,,,,,,,,,,,,,,,,,
194.0, -187500.02235174447, 28308.99844276887, -187500.02235174447, -187500.02235174447, -187500.02235174447, -1729.9132621184901, -187500.02235174447, -187500.02235174447, 0.03, 0.996, -0.044, 192.0, 0.0, 0.0, 0.0, 0.0, 0.0, 0.0, 0.0, 0.0, 0.0, 1.6963224041939716E9, 0.0, 2023-10-03 17:40:04.193,,,,,,,,,,,,,,,,,,,,,,,,,,,,,,,,,,,,,,,,,,,,,,,,,,,,,,,,,,,,,,,,,,,,,,,,,,,
195.0, -187500.02235174447, 33352.17784073089, -187500.02235174447, -187500.02235174447, -187500.02235174447, 508.81511078061, -187500.02235174447, -187500.02235174447, 0.022, 0.984, -0.022, 192.0, 0.0, 176.0, 30.0, 192.0, 255.0, 80.0, 0.0, 0.0, 0.0, 1.6963224041939883E9, 0.0, 2023-10-03 17:40:04.193,,,,,,,,,,,,,,,,,,,,,,,,,,,,,,,,,,,,,,,,,,,,,,,,,,,,,,,,,,,,,,,,,,,,,,,,,,,
196.0, -187500.02235174447, 48405.161309857525, -187500.02235174447, -182653.0689183556, -187500.02235174447, 7911.489356933756, -187500.02235174447, -187500.02235174447, 0.022, 0.984, -0.022, 192.0, 0.0, 0.0, 0.0, 0.0, 0.0, 0.0, 0.0, 0.0, 0.0, 1.6963224041940053E9, 0.0, 2023-10-03 17:40:04.194,,,,,,,,,,,,,,,,,,,,,,,,,,,,,,,,,,,,,,,,,,,,,,,,,,,,,,,,,,,,,,,,,,,,,,,,,,,
197.0, -187500.02235174447, 44071.58274311814, -187500.02235174447, -184184.25282052194, -187500.02235174447, 5780.295226609138, -187500.02235174447, -187500.02235174447, 0.022, 0.984, -0.022, 192.0, 0.0, 0.0, 0.0, 0.0, 0.0, 0.0, 0.0, 0.0, 0.0, 1.696322404194022E9, 0.0, 2023-10-03 17:40:04.194,,,,,,,,,,,,,,,,,,,,,,,,,,,,,,,,,,,,,,,,,,,,,,,,,,,,,,,,,,,,,,,,,,,,,,,,,,,
198.0, -187500.02235174447, 28685.647688585246, -187500.02235174447, -187500.02235174447, -187500.02235174447, -2169.1697441541846, -187500.02235174447, -187500.02235174447, 0.022, 0.984, -0.022, 192.0, 0.0, 0.0, 0.0, 0.0, 0.0, 0.0, 0.0, 0.0, 0.0, 1.6963224041940384E9, 0.0, 2023-10-03 17:40:04.194,,,,,,,,,,,,,,,,,,,,,,,,,,,,,,,,,,,,,,,,,,,,,,,,,,,,,,,,,,,,,,,,,,,,,,,,,,,
199.0, -187500.02235174447, 30113.454772645808, -187500.02235174447, -187500.02235174447, -187500.02235174447, -1750.208646083909, -187500.02235174447, -187500.02235174447, 0.022, 0.984, -0.022, 192.0, 0.0, 0.0, 0.0, 0.0, 0.0, 0.0, 0.0, 0.0, 0.0, 1.696322404194055E9, 0.0, 2023-10-03 17:40:04.194,,,,,,,,,,,,,,,,,,,,,,,,,,,,,,,,,,,,,,,,,,,,,,,,,,,,,,,,,,,,,,,,,,,,,,,,,,,
200.0, -187500.02235174447, 45610.612107588306, -187500.02235174447, -183483.6597423148, -187500.02235174447, 5803.473985609292, -187500.02235174447, -187500.02235174447, 0.022, 0.984, -0.022, 192.0, 0.0, 0.0, 0.0, 0.0, 0.0, 0.0, 0.0, 0.0, 0.0, 1.6963224041940715E9, 0.0, 2023-10-03 17:40:04.194,,,,,,,,,,,,,,,,,,,,,,,,,,,,,,,,,,,,,,,,,,,,,,,,,,,,,,,,,,,,,,,,,,,,,,,,,,,
201.0, -187500.02235174447, 45640.60814864733, -187500.02235174447, -183125.94242405207, -187500.02235174447, 5851.887864099487, -187500.02235174447, -187500.02235174447, 0.022, 0.984, -0.022, 192.0, 0.0, 0.0, 0.0, 0.0, 0.0, 0.0, 0.0, 0.0, 0.0, 1.696322404194088E9, 0.0, 2023-10-03 17:40:04.194,,,,,,,,,,,,,,,,,,,,,,,,,,,,,,,,,,,,,,,,,,,,,,,,,,,,,,,,,,,,,,,,,,,,,,,,,,,
202.0, -187500.02235174447, 29646.43742399662, -187500.02235174447, -187500.02235174447, -187500.02235174447, -2320.915737261264, -187500.02235174447, -187500.02235174447, 0.022, 0.984, -0.022, 192.0, 0.0, 0.0, 0.0, 0.0, 0.0, 0.0, 0.0, 0.0, 0.0, 1.6963224041941051E9, 0.0, 2023-10-03 17:40:04.194,,,,,,,,,,,,,,,,,,,,,,,,,,,,,,,,,,,,,,,,,,,,,,,,,,,,,,,,,,,,,,,,,,,,,,,,,,,
203.0, -187500.02235174447, 27371.052190190818, -187500.02235174447, -187500.02235174447, -187500.02235174447, -3774.472030934338, -187500.02235174447, -187500.02235174447, 0.022, 0.984, -0.022, 192.0, 0.0, 0.0, 0.0, 0.0, 0.0, 0.0, 0.0, 0.0, 0.0, 1.696322404194122E9, 0.0, 2023-10-03 17:40:04.194,,,,,,,,,,,,,,,,,,,,,,,,,,,,,,,,,,,,,,,,,,,,,,,,,,,,,,,,,,,,,,,,,,,,,,,,,,,
204.0, -187500.02235174447, 42234.202293658534, -187500.02235174447, -184548.63095863236, -187500.02235174447, 3432.959727401701, -187500.02235174447, -187500.02235174447, 0.022, 0.984, -0.022, 192.0, 0.0, 0.0, 0.0, 0.0, 0.0, 0.0, 0.0, 0.0, 0.0, 1.6963224041941383E9, 0.0, 2023-10-03 17:40:04.194,,,,,,,,,,,,,,,,,,,,,,,,,,,,,,,,,,,,,,,,,,,,,,,,,,,,,,,,,,,,,,,,,,,,,,,,,,,
205.0, -187500.02235174447, 46653.23157945056, -187500.02235174447, -182315.3340596359, -187500.02235174447, 5659.662861783846, -187500.02235174447, -187500.02235174447, 0.02, 0.976, 0.0, 192.0, 0.0, 160.0, 30.0, 128.0, 0.0, 0.0, 0.0, 0.0, 0.0, 1.6963224041941547E9, 0.0, 2023-10-03 17:40:04.194,,,,,,,,,,,,,,,,,,,,,,,,,,,,,,,,,,,,,,,,,,,,,,,,,,,,,,,,,,,,,,,,,,,,,,,,,,,
206.0, -187500.02235174447, 31153.21322121778, -187500.02235174447, -187500.02235174447, -187500.02235174447, -2180.345616381838, -187500.02235174447, -187500.02235174447, 0.02, 0.976, 0.0, 192.0, 0.0, 0.0, 0.0, 0.0, 0.0, 0.0, 0.0, 0.0, 0.0, 1.696322404194172E9, 0.0, 2023-10-03 17:40:04.194,,,,,,,,,,,,,,,,,,,,,,,,,,,,,,,,,,,,,,,,,,,,,,,,,,,,,,,,,,,,,,,,,,,,,,,,,,,
207.0, -187500.02235174447, 25295.826827982288, -187500.02235174447, -187500.02235174447, -187500.02235174447, -5432.50208288456, -187500.02235174447, -187500.02235174447, 0.02, 0.976, 0.0, 192.0, 0.0, 0.0, 0.0, 0.0, 0.0, 0.0, 0.0, 0.0, 0.0, 1.6963224041941888E9, 0.0, 2023-10-03 17:40:04.194,,,,,,,,,,,,,,,,,,,,,,,,,,,,,,,,,,,,,,,,,,,,,,,,,,,,,,,,,,,,,,,,,,,,,,,,,,,
208.0, -187500.02235174447, 38519.565882631054, -187500.02235174447, -185766.82338319105, -187500.02235174447, 898.5848305922545, -187500.02235174447, -187500.02235174447, 0.02, 0.976, 0.0, 192.0, 0.0, 0.0, 0.0, 0.0, 0.0, 0.0, 0.0, 0.0, 0.0, 1.696322404194205E9, 0.0, 2023-10-03 17:40:04.194,,,,,,,,,,,,,,,,,,,,,,,,,,,,,,,,,,,,,,,,,,,,,,,,,,,,,,,,,,,,,,,,,,,,,,,,,,,
209.0, -187500.02235174447, 46897.58084983598, -187500.02235174447, -181883.56541199272, -187500.02235174447, 5039.826636293726, -187500.02235174447, -187500.02235174447, 0.02, 0.976, 0.0, 192.0, 0.0, 0.0, 0.0, 0.0, 0.0, 0.0, 0.0, 0.0, 0.0, 1.6963224041942222E9, 0.0, 2023-10-03 17:40:04.194,,,,,,,,,,,,,,,,,,,,,,,,,,,,,,,,,,,,,,,,,,,,,,,,,,,,,,,,,,,,,,,,,,,,,,,,,,,
210.0, -187500.02235174447, 33047.72472950515, -187500.02235174447, -187500.02235174447, -187500.02235174447, -1871.5339149873157, -187500.02235174447, -187500.02235174447, 0.02, 0.976, 0.0, 192.0, 0.0, 0.0, 0.0, 0.0, 0.0, 0.0, 0.0, 0.0, 0.0, 1.6963224041942377E9, 0.0, 2023-10-03 17:40:04.194,,,,,,,,,,,,,,,,,,,,,,,,,,,,,,,,,,,,,,,,,,,,,,,,,,,,,,,,,,,,,,,,,,,,,,,,,,,
211.0, -187500.02235174447, 23788.514588894202, -187500.02235174447, -187500.02235174447, -187500.02235174447, -6800.138270871434, -187500.02235174447, -187500.02235174447, 0.02, 0.976, 0.0, 192.0, 0.0, 0.0, 0.0, 0.0, 0.0, 0.0, 0.0, 0.0, 0.0, 1.6963224041942537E9, 0.0, 2023-10-03 17:40:04.194,,,,,,,,,,,,,,,,,,,,,,,,,,,,,,,,,,,,,,,,,,,,,,,,,,,,,,,,,,,,,,,,,,,,,,,,,,,
212.0, -187500.02235174447, 34557.07097733867, -187500.02235174447, -187087.38679735505, -187500.02235174447, -1721.173730036465, -187500.02235174447, -187500.02235174447, 0.02, 0.976, 0.0, 192.0, 0.0, 0.0, 0.0, 0.0, 0.0, 0.0, 0.0, 0.0, 0.0, 1.6963224041942692E9, 0.0, 2023-10-03 17:40:04.194,,,,,,,,,,,,,,,,,,,,,,,,,,,,,,,,,,,,,,,,,,,,,,,,,,,,,,,,,,,,,,,,,,,,,,,,,,,
213.0, -187500.02235174447, 46218.91483293949, -187500.02235174447, -181857.19035353546, -187500.02235174447, 3975.2130478874506, -187500.02235174447, -187500.02235174447, 0.02, 0.976, 0.0, 192.0, 0.0, 0.0, 0.0, 0.0, 0.0, 0.0, 0.0, 0.0, 0.0, 1.6963224041942854E9, 0.0, 2023-10-03 17:40:04.194,,,,,,,,,,,,,,,,,,,,,,,,,,,,,,,,,,,,,,,,,,,,,,,,,,,,,,,,,,,,,,,,,,,,,,,,,,,
214.0, -187500.02235174447, 35024.2671399435, -187500.02235174447, -186405.07744611235, -187500.02235174447, -1555.2567309447206, -187500.02235174447, -187500.02235174447, 0.02, 0.976, 0.0, 192.0, 0.0, 0.0, 0.0, 0.0, 0.0, 0.0, 0.0, 0.0, 0.0, 1.6963224041943016E9, 0.0, 2023-10-03 17:40:04.194,,,,,,,,,,,,,,,,,,,,,,,,,,,,,,,,,,,,,,,,,,,,,,,,,,,,,,,,,,,,,,,,,,,,,,,,,,,
215.0, -187500.02235174447, 22945.138567106555, -187500.02235174447, -187500.02235174447, -187500.02235174447, -7850.916129459874, -187500.02235174447, -187500.02235174447, 0.02, 0.968, 0.02, 192.0, 0.0, 160.0, 30.0, 64.0, 0.0, 160.0, 0.0, 0.0, 0.0, 1.6963224041943183E9, 0.0, 2023-10-03 17:40:04.194,,,,,,,,,,,,,,,,,,,,,,,,,,,,,,,,,,,,,,,,,,,,,,,,,,,,,,,,,,,,,,,,,,,,,,,,,,,
216.0, -187500.02235174447, 30722.383346841736, -187500.02235174447, -187500.02235174447, -187500.02235174447, -4292.339598219347, -187500.02235174447, -187500.02235174447, 0.02, 0.968, 0.02, 192.0, 0.0, 0.0, 0.0, 0.0, 0.0, 0.0, 0.0, 0.0, 0.0, 1.6963224041943345E9, 0.0, 2023-10-03 17:40:04.194,,,,,,,,,,,,,,,,,,,,,,,,,,,,,,,,,,,,,,,,,,,,,,,,,,,,,,,,,,,,,,,,,,,,,,,,,,,
217.0, -187500.02235174447, 44743.8114576115, -187500.02235174447, -182179.97189521455, -187500.02235174447, 2494.678198656821, -187500.02235174447, -187500.02235174447, 0.02, 0.968, 0.02, 192.0, 0.0, 0.0, 0.0, 0.0, 0.0, 0.0, 0.0, 0.0, 0.0, 1.6963224041943505E9, 0.0, 2023-10-03 17:40:04.194,,,,,,,,,,,,,,,,,,,,,,,,,,,,,,,,,,,,,,,,,,,,,,,,,,,,,,,,,,,,,,,,,,,,,,,,,,,
218.0, -187500.02235174447, 37169.36405531932, -187500.02235174447, -185116.56643349727, -187500.02235174447, -1213.163282056246, -187500.02235174447, -187500.02235174447, 0.02, 0.968, 0.02, 192.0, 0.0, 0.0, 0.0, 0.0, 0.0, 0.0, 0.0, 0.0, 0.0, 1.696322404194366E9, 0.0, 2023-10-03 17:40:04.194,,,,,,,,,,,,,,,,,,,,,,,,,,,,,,,,,,,,,,,,,,,,,,,,,,,,,,,,,,,,,,,,,,,,,,,,,,,
219.0, -187500.02235174447, 22911.186267278943, -187500.02235174447, -187500.02235174447, -187500.02235174447, -8537.271146448988, -187500.02235174447, -187500.02235174447, 0.02, 0.968, 0.02, 192.0, 0.0, 0.0, 0.0, 0.0, 0.0, 0.0, 0.0, 0.0, 0.0, 1.6963224041943817E9, 0.0, 2023-10-03 17:40:04.194,,,,,,,,,,,,,,,,,,,,,,,,,,,,,,,,,,,,,,,,,,,,,,,,,,,,,,,,,,,,,,,,,,,,,,,,,,,
220.0, -187500.02235174447, 27265.14962496157, -187500.02235174447, -187500.02235174447, -187500.02235174447, -6695.599162053963, -187500.02235174447, -187500.02235174447, 0.02, 0.968, 0.02, 192.0, 0.0, 0.0, 0.0, 0.0, 0.0, 0.0, 0.0, 0.0, 0.0, 1.6963224041943977E9, 0.0, 2023-10-03 17:40:04.194,,,,,,,,,,,,,,,,,,,,,,,,,,,,,,,,,,,,,,,,,,,,,,,,,,,,,,,,,,,,,,,,,,,,,,,,,,,
221.0, -187500.02235174447, 42538.63305313981, -187500.02235174447, -182816.39311509053, -187500.02235174447, 628.9110337389748, -187500.02235174447, -187500.02235174447, 0.02, 0.968, 0.02, 192.0, 0.0, 0.0, 0.0, 0.0, 0.0, 0.0, 0.0, 0.0, 0.0, 1.696322404194414E9, 0.0, 2023-10-03 17:40:04.194,,,,,,,,,,,,,,,,,,,,,,,,,,,,,,,,,,,,,,,,,,,,,,,,,,,,,,,,,,,,,,,,,,,,,,,,,,,
222.0, -187500.02235174447, 39122.37007884623, -187500.02235174447, -183923.58677668415, -187500.02235174447, -987.4330148021002, -187500.02235174447, -187500.02235174447, 0.02, 0.968, 0.02, 192.0, 0.0, 0.0, 0.0, 0.0, 0.0, 0.0, 0.0, 0.0, 0.0, 1.6963224041944308E9, 0.0, 2023-10-03 17:40:04.194,,,,,,,,,,,,,,,,,,,,,,,,,,,,,,,,,,,,,,,,,,,,,,,,,,,,,,,,,,,,,,,,,,,,,,,,,,,
223.0, -187500.02235174447, 23537.012760283087, -187500.02235174447, -187500.02235174447, -187500.02235174447, -8868.948682421289, -187500.02235174447, -187500.02235174447, 0.02, 0.968, 0.02, 192.0, 0.0, 0.0, 0.0, 0.0, 0.0, 0.0, 0.0, 0.0, 0.0, 1.6963224041944475E9, 0.0, 2023-10-03 17:40:04.194,,,,,,,,,,,,,,,,,,,,,,,,,,,,,,,,,,,,,,,,,,,,,,,,,,,,,,,,,,,,,,,,,,,,,,,,,,,
224.0, -187500.02235174447, 24169.16479696808, -187500.02235174447, -187500.02235174447, -187500.02235174447, -8888.573514053049, -187500.02235174447, -187500.02235174447, 0.026000000000000002, 0.9540000000000001, 0.032, 192.0, 0.0, 208.0, 29.0, 208.0, 1.0, 0.0, 0.0, 0.0, 0.0, 1.6963224041944644E9, 0.0, 2023-10-03 17:40:04.194,,,,,,,,,,,,,,,,,,,,,,,,,,,,,,,,,,,,,,,,,,,,,,,,,,,,,,,,,,,,,,,,,,,,,,,,,,,
225.0, -187500.02235174447, 39601.904404390385, -187500.02235174447, -183694.59315473953, -187500.02235174447, -1525.5289108191623, -187500.02235174447, -187500.02235174447, 0.026000000000000002, 0.9540000000000001, 0.032, 192.0, 0.0, 0.0, 0.0, 0.0, 0.0, 0.0, 0.0, 0.0, 0.0, 1.696322404194481E9, 0.0, 2023-10-03 17:40:04.194,,,,,,,,,,,,,,,,,,,,,,,,,,,,,,,,,,,,,,,,,,,,,,,,,,,,,,,,,,,,,,,,,,,,,,,,,,,
226.0, -187500.02235174447, 40605.47537868922, -187500.02235174447, -182926.5872152552, -187500.02235174447, -999.4359015746, -187500.02235174447, -187500.02235174447, 0.026000000000000002, 0.9540000000000001, 0.032, 192.0, 0.0, 0.0, 0.0, 0.0, 0.0, 0.0, 0.0, 0.0, 0.0, 1.696322404194497E9, 0.0, 2023-10-03 17:40:04.194,,,,,,,,,,,,,,,,,,,,,,,,,,,,,,,,,,,,,,,,,,,,,,,,,,,,,,,,,,,,,,,,,,,,,,,,,,,
227.0, -187500.02235174447, 24649.25791612362, -187500.02235174447, -187500.02235174447, -187500.02235174447, -8980.908570397922, -187500.02235174447, -187500.02235174447, 0.026000000000000002, 0.9540000000000001, 0.032, 192.0, 0.0, 0.0, 0.0, 0.0, 0.0, 0.0, 0.0, 0.0, 0.0, 1.696322404194514E9, 0.0, 2023-10-03 17:40:04.194,,,,,,,,,,,,,,,,,,,,,,,,,,,,,,,,,,,,,,,,,,,,,,,,,,,,,,,,,,,,,,,,,,,,,,,,,,,
228.0, -187500.02235174447, 21570.394524382893, -187500.02235174447, -187500.02235174447, -187500.02235174447, -10817.841984968423, -187500.02235174447, -187500.02235174447, 0.026000000000000002, 0.9540000000000001, 0.032, 192.0, 0.0, 0.0, 0.0, 0.0, 0.0, 0.0, 0.0, 0.0, 0.0, 1.6963224041945312E9, 0.0, 2023-10-03 17:40:04.194,,,,,,,,,,,,,,,,,,,,,,,,,,,,,,,,,,,,,,,,,,,,,,,,,,,,,,,,,,,,,,,,,,,,,,,,,,,
229.0, -187500.02235174447, 36108.30439428144, -187500.02235174447, -184786.29705742563, -187500.02235174447, -3913.142253535063, -187500.02235174447, -187500.02235174447, 0.026000000000000002, 0.9540000000000001, 0.032, 192.0, 0.0, 0.0, 0.0, 0.0, 0.0, 0.0, 0.0, 0.0, 0.0, 1.6963224041945481E9, 0.0, 2023-10-03 17:40:04.194,,,,,,,,,,,,,,,,,,,,,,,,,,,,,,,,,,,,,,,,,,,,,,,,,,,,,,,,,,,,,,,,,,,,,,,,,,,
230.0, -187500.02235174447, 41358.12566973277, -187500.02235174447, -182241.3274337444, -187500.02235174447, -1324.4973211881306, -187500.02235174447, -187500.02235174447, 0.026000000000000002, 0.9540000000000001, 0.032, 192.0, 0.0, 0.0, 0.0, 0.0, 0.0, 0.0, 0.0, 0.0, 0.0, 1.696322404194565E9, 0.0, 2023-10-03 17:40:04.194,,,,,,,,,,,,,,,,,,,,,,,,,,,,,,,,,,,,,,,,,,,,,,,,,,,,,,,,,,,,,,,,,,,,,,,,,,,
231.0, -187500.02235174447, 26167.65662046154, -187500.02235174447, -187500.02235174447, -187500.02235174447, -8843.959432120257, -187500.02235174447, -187500.02235174447, 0.026000000000000002, 0.9540000000000001, 0.032, 192.0, 0.0, 0.0, 0.0, 0.0, 0.0, 0.0, 0.0, 0.0, 0.0, 1.6963224041945822E9, 0.0, 2023-10-03 17:40:04.194,,,,,,,,,,,,,,,,,,,,,,,,,,,,,,,,,,,,,,,,,,,,,,,,,,,,,,,,,,,,,,,,,,,,,,,,,,,
232.0, -187500.02235174447, 19548.031037811164, -187500.02235174447, -187500.02235174447, -187500.02235174447, -12416.483451900895, -187500.02235174447, -187500.02235174447, 0.026000000000000002, 0.9540000000000001, 0.032, 192.0, 0.0, 0.0, 0.0, 0.0, 0.0, 0.0, 0.0, 0.0, 0.0, 1.6963224041945984E9, 0.0, 2023-10-03 17:40:04.194,,,,,,,,,,,,,,,,,,,,,,,,,,,,,,,,,,,,,,,,,,,,,,,,,,,,,,,,,,,,,,,,,,,,,,,,,,,
233.0, -187500.02235174447, 32234.255341798707, -187500.02235174447, -186033.70321198742, -187500.02235174447, -6448.500627100543, -187500.02235174447, -187500.02235174447, 0.026000000000000002, 0.9540000000000001, 0.032, 192.0, 0.0, 0.0, 0.0, 0.0, 0.0, 0.0, 0.0, 0.0, 0.0, 1.6963224041946151E9, 0.0, 2023-10-03 17:40:04.194,,,,,,,,,,,,,,,,,,,,,,,,,,,,,,,,,,,,,,,,,,,,,,,,,,,,,,,,,,,,,,,,,,,,,,,,,,,
234.0, -187500.02235174447, 41291.763340444966, -187500.02235174447, -181923.79855201227, -187500.02235174447, -2053.3653561312385, -187500.02235174447, -187500.02235174447, 0.03, 0.974, 0.038, 192.0, 0.0, 240.0, 30.0, 112.0, 1.0, 48.0, 0.0, 0.0, 0.0, 1.696322404194632E9, 0.0, 2023-10-03 17:40:04.194,,,,,,,,,,,,,,,,,,,,,,,,,,,,,,,,,,,,,,,,,,,,,,,,,,,,,,,,,,,,,,,,,,,,,,,,,,,
235.0, -187500.02235174447, 27994.531750027152, -187500.02235174447, -187355.67478605208, -187500.02235174447, -8559.73464962657, -187500.02235174447, -187500.02235174447, 0.03, 0.974, 0.038, 192.0, 0.0, 0.0, 0.0, 0.0, 0.0, 0.0, 0.0, 0.0, 0.0, 1.6963224041946492E9, 0.0, 2023-10-03 17:40:04.194,,,,,,,,,,,,,,,,,,,,,,,,,,,,,,,,,,,,,,,,,,,,,,,,,,,,,,,,,,,,,,,,,,,,,,,,,,,
236.0, -187500.02235174447, 18126.191869520175, -187500.02235174447, -187500.02235174447, -187500.02235174447, -13705.732072083007, -187500.02235174447, -187500.02235174447, 0.03, 0.974, 0.038, 192.0, 0.0, 0.0, 0.0, 0.0, 0.0, 0.0, 0.0, 0.0, 0.0, 1.6963224041946661E9, 0.0, 2023-10-03 17:40:04.194,,,,,,,,,,,,,,,,,,,,,,,,,,,,,,,,,,,,,,,,,,,,,,,,,,,,,,,,,,,,,,,,,,,,,,,,,,,
237.0, -187500.02235174447, 28215.076412567665, -187500.02235174447, -187340.29678586684, -187500.02235174447, -9022.102835429054, -187500.02235174447, -187500.02235174447, 0.03, 0.974, 0.038, 192.0, 0.0, 0.0, 0.0, 0.0, 0.0, 0.0, 0.0, 0.0, 0.0, 1.6963224041946833E9, 0.0, 2023-10-03 17:40:04.194,,,,,,,,,,,,,,,,,,,,,,,,,,,,,,,,,,,,,,,,,,,,,,,,,,,,,,,,,,,,,,,,,,,,,,,,,,,
238.0, -187500.02235174447, 40371.60907645334, -187500.02235174447, -181977.82271836075, -187500.02235174447, -3180.206201101089, -187500.02235174447, -187500.02235174447, 0.03, 0.974, 0.038, 192.0, 0.0, 0.0, 0.0, 0.0, 0.0, 0.0, 0.0, 0.0, 0.0, 1.6963224041947005E9, 0.0, 2023-10-03 17:40:04.194,,,,,,,,,,,,,,,,,,,,,,,,,,,,,,,,,,,,,,,,,,,,,,,,,,,,,,,,,,,,,,,,,,,,,,,,,,,
239.0, -187500.02235174447, 29953.818613746003, -187500.02235174447, -186131.26857653484, -187500.02235174447, -8235.857872469172, -187500.02235174447, -187500.02235174447, 0.03, 0.974, 0.038, 192.0, 0.0, 0.0, 0.0, 0.0, 0.0, 0.0, 0.0, 0.0, 0.0, 1.6963224041947176E9, 0.0, 2023-10-03 17:40:04.194,,,,,,,,,,,,,,,,,,,,,,,,,,,,,,,,,,,,,,,,,,,,,,,,,,,,,,,,,,,,,,,,,,,,,,,,,,,
240.0, -187500.02235174447, 17400.855410201002, -187500.02235174447, -187500.02235174447, -187500.02235174447, -14672.713240708501, -187500.02235174447, -187500.02235174447, 0.03, 0.974, 0.038, 192.0, 0.0, 0.0, 0.0, 0.0, 0.0, 0.0, 0.0, 0.0, 0.0, 1.6963224041947343E9, 0.0, 2023-10-03 17:40:04.194,,,,,,,,,,,,,,,,,,,,,,,,,,,,,,,,,,,,,,,,,,,,,,,,,,,,,,,,,,,,,,,,,,,,,,,,,,,
241.0, -187500.02235174447, 24413.69288130914, -187500.02235174447, -187500.02235174447, -187500.02235174447, -11512.578906128278, -187500.02235174447, -187500.02235174447, 0.03, 0.974, 0.038, 192.0, 0.0, 0.0, 0.0, 0.0, 0.0, 0.0, 0.0, 0.0, 0.0, 1.6963224041947508E9, 0.0, 2023-10-03 17:40:04.194,,,,,,,,,,,,,,,,,,,,,,,,,,,,,,,,,,,,,,,,,,,,,,,,,,,,,,,,,,,,,,,,,,,,,,,,,,,
242.0, -187500.02235174447, 38622.02627921418, -187500.02235174447, -182408.47377878116, -187500.02235174447, -4734.635917500963, -187500.02235174447, -187500.02235174447, 0.03, 0.974, 0.038, 192.0, 0.0, 0.0, 0.0, 0.0, 0.0, 0.0, 0.0, 0.0, 0.0, 1.696322404674975E9, 0.0, 2023-10-03 17:40:04.674,,,,,,,,,,,,,,,,,,,,,,,,,,,,,,,,,,,,,,,,,,,,,,,,,,,,,,,,,,,,,,,,,,,,,,,,,,,
243.0, -187500.02235174447, 31905.88586400579, -187500.02235174447, -184949.88947509404, -187500.02235174447, -7957.533950511689, -187500.02235174447, -187500.02235174447, 0.03, 0.974, 0.038, 192.0, 0.0, 0.0, 0.0, 0.0, 0.0, 0.0, 0.0, 0.0, 0.0, 1.69632240467503E9, 0.0, 2023-10-03 17:40:04.675,,,,,,,,,,,,,,,,,,,,,,,,,,,,,,,,,,,,,,,,,,,,,,,,,,,,,,,,,,,,,,,,,,,,,,,,,,,
244.0, -187500.02235174447, 17371.798142409105, -187500.02235174447, -187500.02235174447, -187500.02235174447, -15317.851640922028, -187500.02235174447, -187500.02235174447, 0.04, 0.98, 0.038, 192.0, 1.0, 64.0, 30.0, 160.0, 1.0, 48.0, 0.0, 0.0, 0.0, 1.6963224046750512E9, 0.0, 2023-10-03 17:40:04.675,,,,,,,,,,,,,,,,,,,,,,,,,,,,,,,,,,,,,,,,,,,,,,,,,,,,,,,,,,,,,,,,,,,,,,,,,,,
245.0, -187500.02235174447, 20853.328210512187, -187500.02235174447, -187500.02235174447, -187500.02235174447, -13904.282618079498, -187500.02235174447, -187500.02235174447, 0.04, 0.98, 0.038, 192.0, 0.0, 0.0, 0.0, 0.0, 0.0, 0.0, 0.0, 0.0, 0.0, 1.696322404675071E9, 0.0, 2023-10-03 17:40:04.675,,,,,,,,,,,,,,,,,,,,,,,,,,,,,,,,,,,,,,,,,,,,,,,,,,,,,,,,,,,,,,,,,,,,,,,,,,,
246.0, -187500.02235174447, 36124.53176075599, -187500.02235174447, -183139.8899125922, -187500.02235174447, -6636.545853203042, -187500.02235174447, -187500.02235174447, 0.04, 0.98, 0.038, 192.0, 0.0, 0.0, 0.0, 0.0, 0.0, 0.0, 0.0, 0.0, 0.0, 1.696322404675092E9, 0.0, 2023-10-03 17:40:04.675,,,,,,,,,,,,,,,,,,,,,,,,,,,,,,,,,,,,,,,,,,,,,,,,,,,,,,,,,,,,,,,,,,,,,,,,,,,
247.0, -187500.02235174447, 33702.69789727902, -187500.02235174447, -183837.53256053122, -187500.02235174447, -7765.86774180743, -187500.02235174447, -187500.02235174447, 0.04, 0.98, 0.038, 192.0, 0.0, 0.0, 0.0, 0.0, 0.0, 0.0, 0.0, 0.0, 0.0, 1.6963224046751072E9, 0.0, 2023-10-03 17:40:04.675,,,,,,,,,,,,,,,,,,,,,,,,,,,,,,,,,,,,,,,,,,,,,,,,,,,,,,,,,,,,,,,,,,,,,,,,,,,
248.0, -187500.02235174447, 18029.14059509523, -187500.02235174447, -187500.02235174447, -187500.02235174447, -15617.722644534428, -187500.02235174447, -187500.02235174447, 0.04, 0.98, 0.038, 192.0, 0.0, 0.0, 0.0, 0.0, 0.0, 0.0, 0.0, 0.0, 0.0, 1.6963224046751196E9, 0.0, 2023-10-03 17:40:04.675,,,,,,,,,,,,,,,,,,,,,,,,,,,,,,,,,,,,,,,,,,,,,,,,,,,,,,,,,,,,,,,,,,,,,,,,,,,
249.0, -187500.02235174447, 17834.211031700495, -187500.02235174447, -187500.02235174447, -187500.02235174447, -16023.116233720331, -187500.02235174447, -187500.02235174447, 0.04, 0.98, 0.038, 192.0, 0.0, 0.0, 0.0, 0.0, 0.0, 0.0, 0.0, 0.0, 0.0, 1.696322404675132E9, 0.0, 2023-10-03 17:40:04.675,,,,,,,,,,,,,,,,,,,,,,,,,,,,,,,,,,,,,,,,,,,,,,,,,,,,,,,,,,,,,,,,,,,,,,,,,,,
250.0, -187500.02235174447, 32987.218557264634, -187500.02235174447, -184130.6086338292, -187500.02235174447, -8842.148940819376, -187500.02235174447, -187500.02235174447, 0.04, 0.98, 0.038, 192.0, 0.0, 0.0, 0.0, 0.0, 0.0, 0.0, 0.0, 0.0, 0.0, 1.6963224046751437E9, 0.0, 2023-10-03 17:40:04.675,,,,,,,,,,,,,,,,,,,,,,,,,,,,,,,,,,,,,,,,,,,,,,,,,,,,,,,,,,,,,,,,,,,,,,,,,,,
251.0, -187500.02235174447, 34918.252815991975, -187500.02235174447, -182981.34898917068, -187500.02235174447, -7851.653737026899, -187500.02235174447, -187500.02235174447, 0.04, 0.98, 0.038, 192.0, 0.0, 0.0, 0.0, 0.0, 0.0, 0.0, 0.0, 0.0, 0.0, 1.6963224046751552E9, 0.0, 2023-10-03 17:40:04.675,,,,,,,,,,,,,,,,,,,,,,,,,,,,,,,,,,,,,,,,,,,,,,,,,,,,,,,,,,,,,,,,,,,,,,,,,,,
252.0, -187500.02235174447, 19204.529429022008, -187500.02235174447, -187500.02235174447, -187500.02235174447, -15640.342609923198, -187500.02235174447, -187500.02235174447, 0.04, 0.98, 0.038, 192.0, 0.0, 0.0, 0.0, 0.0, 0.0, 0.0, 0.0, 0.0, 0.0, 1.6963224046751668E9, 0.0, 2023-10-03 17:40:04.675,,,,,,,,,,,,,,,,,,,,,,,,,,,,,,,,,,,,,,,,,,,,,,,,,,,,,,,,,,,,,,,,,,,,,,,,,,,
253.0, -187500.02235174447, 15347.735923258773, -187500.02235174447, -187500.02235174447, -187500.02235174447, -17863.000078558933, -187500.02235174447, -187500.02235174447, 0.04, 0.98, 0.038, 192.0, 0.0, 0.0, 0.0, 0.0, 0.0, 0.0, 0.0, 0.0, 0.0, 1.696322404675178E9, 0.0, 2023-10-03 17:40:04.675,,,,,,,,,,,,,,,,,,,,,,,,,,,,,,,,,,,,,,,,,,,,,,,,,,,,,,,,,,,,,,,,,,,,,,,,,,,
254.0, -187500.02235174447, 29389.571176716232, -187500.02235174447, -185299.44840663057, -187500.02235174447, -11251.957565779396, -187500.02235174447, -187500.02235174447, 0.054, 0.99, 0.038, 192.0, 1.0, 176.0, 30.0, 240.0, 1.0, 48.0, 0.0, 0.0, 0.0, 1.69632240467519E9, 0.0, 2023-10-03 17:40:04.675,,,,,,,,,,,,,,,,,,,,,,,,,,,,,,,,,,,,,,,,,,,,,,,,,,,,,,,,,,,,,,,,,,,,,,,,,,,
255.0, -187500.02235174447, 35453.26417127421, -187500.02235174447, -182439.7662210186, -187500.02235174447, -8281.857762558195, -187500.02235174447, -187500.02235174447, 0.054, 0.99, 0.038, 192.0, 0.0, 0.0, 0.0, 0.0, 0.0, 0.0, 0.0, 0.0, 0.0, 1.6963224046752012E9, 0.0, 2023-10-03 17:40:04.675,,,,,,,,,,,,,,,,,,,,,,,,,,,,,,,,,,,,,,,,,,,,,,,,,,,,,,,,,,,,,,,,,,,,,,,,,,,
0.0, -187500.02235174447, 20767.47516005935, -187500.02235174447, -187500.02235174447, -187500.02235174447, -15482.896921980015, -187500.02235174447, -187500.02235174447, 0.054, 0.99, 0.038, 192.0, 0.0, 0.0, 0.0, 0.0, 0.0, 0.0, 0.0, 0.0, 0.0, 1.6963224046752124E9, 0.0, 2023-10-03 17:40:04.675,,,,,,,,,,,,,,,,,,,,,,,,,,,,,,,,,,,,,,,,,,,,,,,,,,,,,,,,,,,,,,,,,,,,,,,,,,,
1.0, -187500.02235174447, 13462.545092409266, -187500.02235174447, -187500.02235174447, -187500.02235174447, -19372.323974647996, -187500.02235174447, -187500.02235174447, 0.054, 0.99, 0.038, 192.0, 0.0, 0.0, 0.0, 0.0, 0.0, 0.0, 0.0, 0.0, 0.0, 1.6963224046752236E9, 0.0, 2023-10-03 17:40:04.675,,,,,,,,,,,,,,,,,,,,,,,,,,,,,,,,,,,,,,,,,,,,,,,,,,,,,,,,,,,,,,,,,,,,,,,,,,,
2.0, -187500.02235174447, 25282.013449908907, -187500.02235174447, -186655.14876307832, -187500.02235174447, -13924.980333445114, -187500.02235174447, -187500.02235174447, 0.054, 0.99, 0.038, 192.0, 0.0, 0.0, 0.0, 0.0, 0.0, 0.0, 0.0, 0.0, 0.0, 1.696322404675235E9, 0.0, 2023-10-03 17:40:04.675,,,,,,,,,,,,,,,,,,,,,,,,,,,,,,,,,,,,,,,,,,,,,,,,,,,,,,,,,,,,,,,,,,,,,,,,,,,
3.0, -187500.02235174447, 34913.46954267854, -187500.02235174447, -182349.19695248568, -187500.02235174447, -9329.595783900713, -187500.02235174447, -187500.02235174447, 0.054, 0.99, 0.038, 192.0, 0.0, 0.0, 0.0, 0.0, 0.0, 0.0, 0.0, 0.0, 0.0, 1.696322404675246E9, 0.0, 2023-10-03 17:40:04.675,,,,,,,,,,,,,,,,,,,,,,,,,,,,,,,,,,,,,,,,,,,,,,,,,,,,,,,,,,,,,,,,,,,,,,,,,,,
4.0, -187500.02235174447, 22606.979025242214, -187500.02235174447, -187317.49800652242, -187500.02235174447, -15211.747909992686, -187500.02235174447, -187500.02235174447, 0.054, 0.99, 0.038, 192.0, 0.0, 0.0, 0.0, 0.0, 0.0, 0.0, 0.0, 0.0, 0.0, 1.6963224046752572E9, 0.0, 2023-10-03 17:40:04.675,,,,,,,,,,,,,,,,,,,,,,,,,,,,,,,,,,,,,,,,,,,,,,,,,,,,,,,,,,,,,,,,,,,,,,,,,,,
5.0, -187500.02235174447, 12392.410623122529, -187500.02235174447, -187500.02235174447, -187500.02235174447, -20458.641106920375, -187500.02235174447, -187500.02235174447, 0.054, 0.99, 0.038, 192.0, 0.0, 0.0, 0.0, 0.0, 0.0, 0.0, 0.0, 0.0, 0.0, 1.6963224046752684E9, 0.0, 2023-10-03 17:40:04.675,,,,,,,,,,,,,,,,,,,,,,,,,,,,,,,,,,,,,,,,,,,,,,,,,,,,,,,,,,,,,,,,,,,,,,,,,,,
6.0, -187500.02235174447, 21607.051385289597, -187500.02235174447, -187500.02235174447, -187500.02235174447, -16314.001836061698, -187500.02235174447, -187500.02235174447, 0.054, 0.99, 0.038, 192.0, 0.0, 0.0, 0.0, 0.0, 0.0, 0.0, 0.0, 0.0, 0.0, 1.6963224046752796E9, 0.0, 2023-10-03 17:40:04.675,,,,,,,,,,,,,,,,,,,,,,,,,,,,,,,,,,,,,,,,,,,,,,,,,,,,,,,,,,,,,,,,,,,,,,,,,,,
7.0, -187500.02235174447, 33899.974393841556, -187500.02235174447, -182483.91091631784, -187500.02235174447, -10518.954458112057, -187500.02235174447, -187500.02235174447, 0.054, 0.99, 0.038, 192.0, 0.0, 0.0, 0.0, 0.0, 0.0, 0.0, 0.0, 0.0, 0.0, 1.6963224046752913E9, 0.0, 2023-10-03 17:40:04.675,,,,,,,,,,,,,,,,,,,,,,,,,,,,,,,,,,,,,,,,,,,,,,,,,,,,,,,,,,,,,,,,,,,,,,,,,,,
8.0, -187500.02235174447, 24504.9327021757, -187500.02235174447, -186180.50946956986, -187500.02235174447, -14968.449171596667, -187500.02235174447, -187500.02235174447, 0.056, 0.982, 0.04, 192.0, 1.0, 192.0, 30.0, 176.0, 1.0, 64.0, 0.0, 0.0, 0.0, 1.6963224046753027E9, 0.0, 2023-10-03 17:40:04.675,,,,,,,,,,,,,,,,,,,,,,,,,,,,,,,,,,,,,,,,,,,,,,,,,,,,,,,,,,,,,,,,,,,,,,,,,,,
9.0, -187500.02235174447, 11862.16018940928, -187500.02235174447, -187500.02235174447, -187500.02235174447, -21343.65842862826, -187500.02235174447, -187500.02235174447, 0.056, 0.982, 0.04, 192.0, 0.0, 0.0, 0.0, 0.0, 0.0, 0.0, 0.0, 0.0, 0.0, 1.6963224046753137E9, 0.0, 2023-10-03 17:40:04.675,,,,,,,,,,,,,,,,,,,,,,,,,,,,,,,,,,,,,,,,,,,,,,,,,,,,,,,,,,,,,,,,,,,,,,,,,,,
10.0, -187500.02235174447, 17985.80056259639, -187500.02235174447, -187500.02235174447, -187500.02235174447, -18688.941739671438, -187500.02235174447, -187500.02235174447, 0.056, 0.982, 0.04, 192.0, 0.0, 0.0, 0.0, 0.0, 0.0, 0.0, 0.0, 0.0, 0.0, 1.696322404675325E9, 0.0, 2023-10-03 17:40:04.675,,,,,,,,,,,,,,,,,,,,,,,,,,,,,,,,,,,,,,,,,,,,,,,,,,,,,,,,,,,,,,,,,,,,,,,,,,,
11.0, -187500.02235174447, 32053.027397755075, -187500.02235174447, -182983.60651536068, -187500.02235174447, -12124.904945481414, -187500.02235174447, -187500.02235174447, 0.056, 0.982, 0.04, 192.0, 0.0, 0.0, 0.0, 0.0, 0.0, 0.0, 0.0, 0.0, 0.0, 1.696322404675336E9, 0.0, 2023-10-03 17:40:04.675,,,,,,,,,,,,,,,,,,,,,,,,,,,,,,,,,,,,,,,,,,,,,,,,,,,,,,,,,,,,,,,,,,,,,,,,,,,
12.0, -187500.02235174447, 26411.581207702307, -187500.02235174447, -185054.80856356723, -187500.02235174447, -14755.593509148779, -187500.02235174447, -187500.02235174447, 0.056, 0.982, 0.04, 192.0, 0.0, 0.0, 0.0, 0.0, 0.0, 0.0, 0.0, 0.0, 0.0, 1.696322404675347E9, 0.0, 2023-10-03 17:40:04.675,,,,,,,,,,,,,,,,,,,,,,,,,,,,,,,,,,,,,,,,,,,,,,,,,,,,,,,,,,,,,,,,,,,,,,,,,,,
13.0, -187500.02235174447, 12036.883775816415, -187500.02235174447, -187500.02235174447, -187500.02235174447, -21873.6629931525, -187500.02235174447, -187500.02235174447, 0.056, 0.982, 0.04, 192.0, 0.0, 0.0, 0.0, 0.0, 0.0, 0.0, 0.0, 0.0, 0.0, 1.6963224046753583E9, 0.0, 2023-10-03 17:40:04.675,,,,,,,,,,,,,,,,,,,,,,,,,,,,,,,,,,,,,,,,,,,,,,,,,,,,,,,,,,,,,,,,,,,,,,,,,,,
14.0, -187500.02235174447, 14700.652921277633, -187500.02235174447, -187500.02235174447, -187500.02235174447, -20913.767327519337, -187500.02235174447, -187500.02235174447, 0.056, 0.982, 0.04, 192.0, 0.0, 0.0, 0.0, 0.0, 0.0, 0.0, 0.0, 0.0, 0.0, 1.6963224046753695E9, 0.0, 2023-10-03 17:40:04.675,,,,,,,,,,,,,,,,,,,,,,,,,,,,,,,,,,,,,,,,,,,,,,,,,,,,,,,,,,,,,,,,,,,,,,,,,,,
15.0, -187500.02235174447, 29502.35807923771, -187500.02235174447, -183757.96035027032, -187500.02235174447, -14044.137483136356, -187500.02235174447, -187500.02235174447, 0.056, 0.982, 0.04, 192.0, 0.0, 0.0, 0.0, 0.0, 0.0, 0.0, 0.0, 0.0, 0.0, 1.6963224046753864E9, 0.0, 2023-10-03 17:40:04.675,,,,,,,,,,,,,,,,,,,,,,,,,,,,,,,,,,,,,,,,,,,,,,,,,,,,,,,,,,,,,,,,,,,,,,,,,,,
16.0, -187500.02235174447, 27968.939002625826, -187500.02235174447, -184092.1636333661, -187500.02235174447, -14710.264171393415, -187500.02235174447, -187500.02235174447, 0.056, 0.982, 0.04, 192.0, 0.0, 0.0, 0.0, 0.0, 0.0, 0.0, 0.0, 0.0, 0.0, 1.6963224046753983E9, 0.0, 2023-10-03 17:40:04.675,,,,,,,,,,,,,,,,,,,,,,,,,,,,,,,,,,,,,,,,,,,,,,,,,,,,,,,,,,,,,,,,,,,,,,,,,,,
17.0, -187500.02235174447, 12710.52065021046, -187500.02235174447, -187500.02235174447, -187500.02235174447, -22181.737086979996, -187500.02235174447, -187500.02235174447, 0.056, 0.982, 0.04, 192.0, 0.0, 0.0, 0.0, 0.0, 0.0, 0.0, 0.0, 0.0, 0.0, 1.6963224046754096E9, 0.0, 2023-10-03 17:40:04.675,,,,,,,,,,,,,,,,,,,,,,,,,,,,,,,,,,,,,,,,,,,,,,,,,,,,,,,,,,,,,,,,,,,,,,,,,,,
18.0, -187500.02235174447, 11802.704549158163, -187500.02235174447, -187500.02235174447, -187500.02235174447, -22936.980180380368, -187500.02235174447, -187500.02235174447, 0.042, 0.982, 0.038, 192.0, 1.0, 80.0, 30.0, 176.0, 1.0, 48.0, 0.0, 0.0, 0.0, 1.6963224046754208E9, 0.0, 2023-10-03 17:40:04.675,,,,,,,,,,,,,,,,,,,,,,,,,,,,,,,,,,,,,,,,,,,,,,,,,,,,,,,,,,,,,,,,,,,,,,,,,,,
19.0, -187500.02235174447, 26321.570732780783, -187500.02235174447, -184768.88504849497, -187500.02235174447, -16225.466576274226, -187500.02235174447, -187500.02235174447, 0.042, 0.982, 0.038, 192.0, 0.0, 0.0, 0.0, 0.0, 0.0, 0.0, 0.0, 0.0, 0.0, 1.696322404675432E9, 0.0, 2023-10-03 17:40:04.675,,,,,,,,,,,,,,,,,,,,,,,,,,,,,,,,,,,,,,,,,,,,,,,,,,,,,,,,,,,,,,,,,,,,,,,,,,,
20.0, -187500.02235174447, 29048.237687139237, -187500.02235174447, -183318.2121298566, -187500.02235174447, -14875.197693729127, -187500.02235174447, -187500.02235174447, 0.042, 0.982, 0.038, 192.0, 0.0, 0.0, 0.0, 0.0, 0.0, 0.0, 0.0, 0.0, 0.0, 1.6963224046754432E9, 0.0, 2023-10-03 17:40:04.675,,,,,,,,,,,,,,,,,,,,,,,,,,,,,,,,,,,,,,,,,,,,,,,,,,,,,,,,,,,,,,,,,,,,,,,,,,,
21.0, -187500.02235174447, 13965.772267076049, -187500.02235174447, -187500.02235174447, -187500.02235174447, -22193.091773163294, -187500.02235174447, -187500.02235174447, 0.042, 0.982, 0.038, 192.0, 0.0, 0.0, 0.0, 0.0, 0.0, 0.0, 0.0, 0.0, 0.0, 1.696322404675454E9, 0.0, 2023-10-03 17:40:04.675,,,,,,,,,,,,,,,,,,,,,,,,,,,,,,,,,,,,,,,,,,,,,,,,,,,,,,,,,,,,,,,,,,,,,,,,,,,
22.0, -187500.02235174447, 9405.569363304301, -187500.02235174447, -187500.02235174447, -187500.02235174447, -24734.28395203161, -187500.02235174447, -187500.02235174447, 0.042, 0.982, 0.038, 192.0, 0.0, 0.0, 0.0, 0.0, 0.0, 0.0, 0.0, 0.0, 0.0, 1.696322404675465E9, 0.0, 2023-10-03 17:40:04.675,,,,,,,,,,,,,,,,,,,,,,,,,,,,,,,,,,,,,,,,,,,,,,,,,,,,,,,,,,,,,,,,,,,,,,,,,,,
23.0, -187500.02235174447, 22702.06334615509, -187500.02235174447, -185966.93855129942, -187500.02235174447, -18613.839878301605, -187500.02235174447, -187500.02235174447, 0.042, 0.982, 0.038, 192.0, 0.0, 0.0, 0.0, 0.0, 0.0, 0.0, 0.0, 0.0, 0.0, 1.696322404675476E9, 0.0, 2023-10-03 17:40:04.675,,,,,,,,,,,,,,,,,,,,,,,,,,,,,,,,,,,,,,,,,,,,,,,,,,,,,,,,,,,,,,,,,,,,,,,,,,,
24.0, -187500.02235174447, 29496.233701256955, -187500.02235174447, -182854.7040050869, -187500.02235174447, -15378.760144562739, -187500.02235174447, -187500.02235174447, 0.042, 0.982, 0.038, 192.0, 0.0, 0.0, 0.0, 0.0, 0.0, 0.0, 0.0, 0.0, 0.0, 1.6963224046754868E9, 0.0, 2023-10-03 17:40:04.675,,,,,,,,,,,,,,,,,,,,,,,,,,,,,,,,,,,,,,,,,,,,,,,,,,,,,,,,,,,,,,,,,,,,,,,,,,,
25.0, -187500.02235174447, 15565.665431698017, -187500.02235174447, -187500.02235174447, -187500.02235174447, -22057.68490525304, -187500.02235174447, -187500.02235174447, 0.042, 0.982, 0.038, 192.0, 0.0, 0.0, 0.0, 0.0, 0.0, 0.0, 0.0, 0.0, 0.0, 1.696322404675498E9, 0.0, 2023-10-03 17:40:04.675,,,,,,,,,,,,,,,,,,,,,,,,,,,,,,,,,,,,,,,,,,,,,,,,,,,,,,,,,,,,,,,,,,,,,,,,,,,
26.0, -187500.02235174447, 7778.764698358143, -187500.02235174447, -187500.02235174447, -187500.02235174447, -26126.30589321922, -187500.02235174447, -187500.02235174447, 0.042, 0.982, 0.038, 192.0, 0.0, 0.0, 0.0, 0.0, 0.0, 0.0, 0.0, 0.0, 0.0, 1.6963224046755092E9, 0.0, 2023-10-03 17:40:04.675,,,,,,,,,,,,,,,,,,,,,,,,,,,,,,,,,,,,,,,,,,,,,,,,,,,,,,,,,,,,,,,,,,,,,,,,,,,
27.0, -187500.02235174447, 18928.530088487874, -187500.02235174447, -187222.88307224313, -187500.02235174447, -21061.512358368916, -187500.02235174447, -187500.02235174447, 0.042, 0.982, 0.038, 192.0, 0.0, 0.0, 0.0, 0.0, 0.0, 0.0, 0.0, 0.0, 0.0, 1.696322404675537E9, 0.0, 2023-10-03 17:40:04.675,,,,,,,,,,,,,,,,,,,,,,,,,,,,,,,,,,,,,,,,,,,,,,,,,,,,,,,,,,,,,,,,,,,,,,,,,,,
28.0, -187500.02235174447, 29063.928611746862, -187500.02235174447, -182778.3951495165, -187500.02235174447, -16302.267170222662, -187500.02235174447, -187500.02235174447, 0.044, 0.99, 0.04, 192.0, 1.0, 96.0, 30.0, 240.0, 1.0, 64.0, 0.0, 0.0, 0.0, 1.6963224046755707E9, 0.0, 2023-10-03 17:40:04.675,,,,,,,,,,,,,,,,,,,,,,,,,,,,,,,,,,,,,,,,,,,,,,,,,,,,,,,,,,,,,,,,,,,,,,,,,,,
29.0, -187500.02235174447, 17439.278058919677, -187500.02235174447, -187428.25090029847, -187500.02235174447, -21811.681605777932, -187500.02235174447, -187500.02235174447, 0.044, 0.99, 0.04, 192.0, 0.0, 0.0, 0.0, 0.0, 0.0, 0.0, 0.0, 0.0, 0.0, 1.6963224046755831E9, 0.0, 2023-10-03 17:40:04.675,,,,,,,,,,,,,,,,,,,,,,,,,,,,,,,,,,,,,,,,,,,,,,,,,,,,,,,,,,,,,,,,,,,,,,,,,,,
30.0, -187500.02235174447, 6735.362915439954, -187500.02235174447, -187500.02235174447, -187500.02235174447, -27260.25459292586, -187500.02235174447, -187500.02235174447, 0.044, 0.99, 0.04, 192.0, 0.0, 0.0, 0.0, 0.0, 0.0, 0.0, 0.0, 0.0, 0.0, 1.6963224046755943E9, 0.0, 2023-10-03 17:40:04.675,,,,,,,,,,,,,,,,,,,,,,,,,,,,,,,,,,,,,,,,,,,,,,,,,,,,,,,,,,,,,,,,,,,,,,,,,,,
31.0, -187500.02235174447, 15194.62647373992, -187500.02235174447, -187500.02235174447, -187500.02235174447, -23490.141152160308, -187500.02235174447, -187500.02235174447, 0.044, 0.99, 0.04, 192.0, 0.0, 0.0, 0.0, 0.0, 0.0, 0.0, 0.0, 0.0, 0.0, 1.6963224046756055E9, 0.0, 2023-10-03 17:40:04.675,,,,,,,,,,,,,,,,,,,,,,,,,,,,,,,,,,,,,,,,,,,,,,,,,,,,,,,,,,,,,,,,,,,,,,,,,,,
32.0, -187500.02235174447, 27876.71570500323, -187500.02235174447, -182976.6774745795, -187500.02235174447, -17557.876414999537, -187500.02235174447, -187500.02235174447, 0.044, 0.99, 0.04, 192.0, 0.0, 0.0, 0.0, 0.0, 0.0, 0.0, 0.0, 0.0, 0.0, 1.6963224046756167E9, 0.0, 2023-10-03 17:40:04.675,,,,,,,,,,,,,,,,,,,,,,,,,,,,,,,,,,,,,,,,,,,,,,,,,,,,,,,,,,,,,,,,,,,,,,,,,,,
33.0, -187500.02235174447, 19428.248039275175, -187500.02235174447, -186240.07686854326, -187500.02235174447, -21520.572485992016, -187500.02235174447, -187500.02235174447, 0.044, 0.99, 0.04, 192.0, 0.0, 0.0, 0.0, 0.0, 0.0, 0.0, 0.0, 0.0, 0.0, 1.6963224046756284E9, 0.0, 2023-10-03 17:40:04.675,,,,,,,,,,,,,,,,,,,,,,,,,,,,,,,,,,,,,,,,,,,,,,,,,,,,,,,,,,,,,,,,,,,,,,,,,,,
34.0, -187500.02235174447, 6383.188829802136, -187500.02235174447, -187500.02235174447, -187500.02235174447, -28040.531640116173, -187500.02235174447, -187500.02235174447, 0.044, 0.99, 0.04, 192.0, 0.0, 0.0, 0.0, 0.0, 0.0, 0.0, 0.0, 0.0, 0.0, 1.6963224046756396E9, 0.0, 2023-10-03 17:40:04.675,,,,,,,,,,,,,,,,,,,,,,,,,,,,,,,,,,,,,,,,,,,,,,,,,,,,,,,,,,,,,,,,,,,,,,,,,,,
35.0, -187500.02235174447, 11576.169619103626, -187500.02235174447, -187500.02235174447, -187500.02235174447, -25866.489215670732, -187500.02235174447, -187500.02235174447, 0.044, 0.99, 0.04, 192.0, 0.0, 0.0, 0.0, 0.0, 0.0, 0.0, 0.0, 0.0, 0.0, 1.6963224046756513E9, 0.0, 2023-10-03 17:40:04.675,,,,,,,,,,,,,,,,,,,,,,,,,,,,,,,,,,,,,,,,,,,,,,,,,,,,,,,,,,,,,,,,,,,,,,,,,,,
36.0, -187500.02235174447, 25792.460238034757, -187500.02235174447, -183591.5292610561, -187500.02235174447, -19272.545787399507, -187500.02235174447, -187500.02235174447, 0.044, 0.99, 0.04, 192.0, 0.0, 0.0, 0.0, 0.0, 0.0, 0.0, 0.0, 0.0, 0.0, 1.6963224046756625E9, 0.0, 2023-10-03 17:40:04.675,,,,,,,,,,,,,,,,,,,,,,,,,,,,,,,,,,,,,,,,,,,,,,,,,,,,,,,,,,,,,,,,,,,,,,,,,,,
37.0, -187500.02235174447, 21151.969868179545, -187500.02235174447, -185211.82956836576, -187500.02235174447, -21385.009155870575, -187500.02235174447, -187500.02235174447, 0.044, 0.99, 0.04, 192.0, 0.0, 0.0, 0.0, 0.0, 0.0, 0.0, 0.0, 0.0, 0.0, 1.6963224046756735E9, 0.0, 2023-10-03 17:40:04.675,,,,,,,,,,,,,,,,,,,,,,,,,,,,,,,,,,,,,,,,,,,,,,,,,,,,,,,,,,,,,,,,,,,,,,,,,,,
38.0, -187500.02235174447, 6604.2699342095775, -187500.02235174447, -187500.02235174447, -187500.02235174447, -28550.151413697175, -187500.02235174447, -187500.02235174447, 0.034, 0.996, 0.04, 192.0, 1.0, 16.0, 31.0, 32.0, 1.0, 64.0, 0.0, 0.0, 0.0, 1.6963224046756847E9, 0.0, 2023-10-03 17:40:04.675,,,,,,,,,,,,,,,,,,,,,,,,,,,,,,,,,,,,,,,,,,,,,,,,,,,,,,,,,,,,,,,,,,,,,,,,,,,
39.0, -187500.02235174447, 8350.768190713905, -187500.02235174447, -187500.02235174447, -187500.02235174447, -28043.258552939722, -187500.02235174447, -187500.02235174447, 0.034, 0.996, 0.04, 192.0, 0.0, 0.0, 0.0, 0.0, 0.0, 0.0, 0.0, 0.0, 0.0, 1.6963224046756957E9, 0.0, 2023-10-03 17:40:04.675,,,,,,,,,,,,,,,,,,,,,,,,,,,,,,,,,,,,,,,,,,,,,,,,,,,,,,,,,,,,,,,,,,,,,,,,,,,
40.0, -187500.02235174447, 23081.484208283928, -187500.02235174447, -184427.86448334032, -187500.02235174447, -21236.48181396506, -187500.02235174447, -187500.02235174447, 0.034, 0.996, 0.04, 192.0, 0.0, 0.0, 0.0, 0.0, 0.0, 0.0, 0.0, 0.0, 0.0, 1.6963224046757066E9, 0.0, 2023-10-03 17:40:04.675,,,,,,,,,,,,,,,,,,,,,,,,,,,,,,,,,,,,,,,,,,,,,,,,,,,,,,,,,,,,,,,,,,,,,,,,,,,
41.0, -187500.02235174447, 22616.254999191166, -187500.02235174447, -184295.38569395372, -187500.02235174447, -21371.41929524175, -187500.02235174447, -187500.02235174447, 0.034, 0.996, 0.04, 192.0, 0.0, 0.0, 0.0, 0.0, 0.0, 0.0, 0.0, 0.0, 0.0, 1.6963224046757176E9, 0.0, 2023-10-03 17:40:04.675,,,,,,,,,,,,,,,,,,,,,,,,,,,,,,,,,,,,,,,,,,,,,,,,,,,,,,,,,,,,,,,,,,,,,,,,,,,
42.0, -187500.02235174447, 7427.194109820618, -187500.02235174447, -187500.02235174447, -187500.02235174447, -28764.8399191904, -187500.02235174447, -187500.02235174447, 0.034, 0.996, 0.04, 192.0, 0.0, 0.0, 0.0, 0.0, 0.0, 0.0, 0.0, 0.0, 0.0, 1.6963224046757288E9, 0.0, 2023-10-03 17:40:04.675,,,,,,,,,,,,,,,,,,,,,,,,,,,,,,,,,,,,,,,,,,,,,,,,,,,,,,,,,,,,,,,,,,,,,,,,,,,
43.0, -187500.02235174447, 5627.185777090285, -187500.02235174447, -187500.02235174447, -187500.02235174447, -29965.46387260722, -187500.02235174447, -187500.02235174447, 0.034, 0.996, 0.04, 192.0, 0.0, 0.0, 0.0, 0.0, 0.0, 0.0, 0.0, 0.0, 0.0, 1.6963224046757395E9, 0.0, 2023-10-03 17:40:04.675,,,,,,,,,,,,,,,,,,,,,,,,,,,,,,,,,,,,,,,,,,,,,,,,,,,,,,,,,,,,,,,,,,,,,,,,,,,
44.0, -187500.02235174447, 19843.811672188243, -187500.02235174447, -185473.30027500394, -187500.02235174447, -23428.807965374945, -187500.02235174447, -187500.02235174447, 0.034, 0.996, 0.04, 192.0, 0.0, 0.0, 0.0, 0.0, 0.0, 0.0, 0.0, 0.0, 0.0, 1.6963224046757507E9, 0.0, 2023-10-03 17:40:04.675,,,,,,,,,,,,,,,,,,,,,,,,,,,,,,,,,,,,,,,,,,,,,,,,,,,,,,,,,,,,,,,,,,,,,,,,,,,
45.0, -187500.02235174447, 23509.07307971395, -187500.02235174447, -183660.97613107876, -187500.02235174447, -21661.85786269401, -187500.02235174447, -187500.02235174447, 0.034, 0.996, 0.04, 192.0, 0.0, 0.0, 0.0, 0.0, 0.0, 0.0, 0.0, 0.0, 0.0, 1.6963224046757617E9, 0.0, 2023-10-03 17:40:04.675,,,,,,,,,,,,,,,,,,,,,,,,,,,,,,,,,,,,,,,,,,,,,,,,,,,,,,,,,,,,,,,,,,,,,,,,,,,
46.0, -187500.02235174447, 8662.731488076626, -187500.02235174447, -187500.02235174447, -187500.02235174447, -28820.093431483918, -187500.02235174447, -187500.02235174447, 0.034, 0.996, 0.04, 192.0, 0.0, 0.0, 0.0, 0.0, 0.0, 0.0, 0.0, 0.0, 0.0, 1.6963224046757727E9, 0.0, 2023-10-03 17:40:04.675,,,,,,,,,,,,,,,,,,,,,,,,,,,,,,,,,,,,,,,,,,,,,,,,,,,,,,,,,,,,,,,,,,,,,,,,,,,
47.0, -187500.02235174447, 3451.2881578550528, -187500.02235174447, -187500.02235174447, -187500.02235174447, -31641.93411373307, -187500.02235174447, -187500.02235174447, 0.034, 0.996, 0.04, 192.0, 0.0, 0.0, 0.0, 0.0, 0.0, 0.0, 0.0, 0.0, 0.0, 1.6963224046757836E9, 0.0, 2023-10-03 17:40:04.675,,,,,,,,,,,,,,,,,,,,,,,,,,,,,,,,,,,,,,,,,,,,,,,,,,,,,,,,,,,,,,,,,,,,,,,,,,,
48.0, -187500.02235174447, 16188.295625245051, -187500.02235174447, -186686.64237101586, -187500.02235174447, -25823.05977619407, -187500.02235174447, -187500.02235174447, 0.044, 1.0, 0.03, 192.0, 1.0, 96.0, 31.0, 64.0, 0.0, 240.0, 0.0, 0.0, 0.0, 1.6963224046757948E9, 0.0, 2023-10-03 17:40:04.675,,,,,,,,,,,,,,,,,,,,,,,,,,,,,,,,,,,,,,,,,,,,,,,,,,,,,,,,,,,,,,,,,,,,,,,,,,,
49.0, -187500.02235174447, 23675.414761950346, -187500.02235174447, -183317.8097984564, -187500.02235174447, -22278.140160815736, -187500.02235174447, -187500.02235174447, 0.044, 1.0, 0.03, 192.0, 0.0, 0.0, 0.0, 0.0, 0.0, 0.0, 0.0, 0.0, 0.0, 1.6963224046758146E9, 0.0, 2023-10-03 17:40:04.675,,,,,,,,,,,,,,,,,,,,,,,,,,,,,,,,,,,,,,,,,,,,,,,,,,,,,,,,,,,,,,,,,,,,,,,,,,,
50.0, -187500.02235174447, 10300.935542694991, -187500.02235174447, -187500.02235174447, -187500.02235174447, -28649.81784222339, -187500.02235174447, -187500.02235174447, 0.044, 1.0, 0.03, 192.0, 0.0, 0.0, 0.0, 0.0, 0.0, 0.0, 0.0, 0.0, 0.0, 1.6963224046758256E9, 0.0, 2023-10-03 17:40:04.675,,,,,,,,,,,,,,,,,,,,,,,,,,,,,,,,,,,,,,,,,,,,,,,,,,,,,,,,,,,,,,,,,,,,,,,,,,,
51.0, -187500.02235174447, 1874.3502347886842, -187500.02235174447, -187500.02235174447, -187500.02235174447, -33011.04551685399, -187500.02235174447, -187500.02235174447, 0.044, 1.0, 0.03, 192.0, 0.0, 0.0, 0.0, 0.0, 0.0, 0.0, 0.0, 0.0, 0.0, 1.6963224046758373E9, 0.0, 2023-10-03 17:40:04.675,,,,,,,,,,,,,,,,,,,,,,,,,,,,,,,,,,,,,,,,,,,,,,,,,,,,,,,,,,,,,,,,,,,,,,,,,,,
52.0, -187500.02235174447, 12431.660286386048, -187500.02235174447, -187500.02235174447, -187500.02235174447, -28227.839258651646, -187500.02235174447, -187500.02235174447, 0.044, 1.0, 0.03, 192.0, 0.0, 0.0, 0.0, 0.0, 0.0, 0.0, 0.0, 0.0, 0.0, 1.6963224046758485E9, 0.0, 2023-10-03 17:40:04.675,,,,,,,,,,,,,,,,,,,,,,,,,,,,,,,,,,,,,,,,,,,,,,,,,,,,,,,,,,,,,,,,,,,,,,,,,,,
53.0, -187500.02235174447, 23135.933057777056, -187500.02235174447, -183244.11609698727, -187500.02235174447, -23219.796802973367, -187500.02235174447, -187500.02235174447, 0.044, 1.0, 0.03, 192.0, 0.0, 0.0, 0.0, 0.0, 0.0, 0.0, 0.0, 0.0, 0.0, 1.6963224046758592E9, 0.0, 2023-10-03 17:40:04.675,,,,,,,,,,,,,,,,,,,,,,,,,,,,,,,,,,,,,,,,,,,,,,,,,,,,,,,,,,,,,,,,,,,,,,,,,,,
54.0, -187500.02235174447, 12225.599554252572, -187500.02235174447, -187500.02235174447, -187500.02235174447, -28360.698027693994, -187500.02235174447, -187500.02235174447, 0.044, 1.0, 0.03, 192.0, 0.0, 0.0, 0.0, 0.0, 0.0, 0.0, 0.0, 0.0, 0.0, 1.6963224046758697E9, 0.0, 2023-10-03 17:40:04.675,,,,,,,,,,,,,,,,,,,,,,,,,,,,,,,,,,,,,,,,,,,,,,,,,,,,,,,,,,,,,,,,,,,,,,,,,,,
55.0, -187500.02235174447, 994.9432009390832, -187500.02235174447, -187500.02235174447, -187500.02235174447, -34031.08972681638, -187500.02235174447, -187500.02235174447, 0.044, 1.0, 0.03, 192.0, 0.0, 0.0, 0.0, 0.0, 0.0, 0.0, 0.0, 0.0, 0.0, 1.6963224046758804E9, 0.0, 2023-10-03 17:40:04.675,,,,,,,,,,,,,,,,,,,,,,,,,,,,,,,,,,,,,,,,,,,,,,,,,,,,,,,,,,,,,,,,,,,,,,,,,,,
56.0, -187500.02235174447, 8696.929657093246, -187500.02235174447, -187500.02235174447, -187500.02235174447, -30628.215447451526, -187500.02235174447, -187500.02235174447, 0.044, 1.0, 0.03, 192.0, 0.0, 0.0, 0.0, 0.0, 0.0, 0.0, 0.0, 0.0, 0.0, 1.6963224046758907E9, 0.0, 2023-10-03 17:40:04.675,,,,,,,,,,,,,,,,,,,,,,,,,,,,,,,,,,,,,,,,,,,,,,,,,,,,,,,,,,,,,,,,,,,,,,,,,,,
57.0, -187500.02235174447, 21709.087098728072, -187500.02235174447, -183558.0239961176, -187500.02235174447, -24587.63415666034, -187500.02235174447, -187500.02235174447, 0.044, 1.0, 0.03, 192.0, 0.0, 0.0, 0.0, 0.0, 0.0, 0.0, 0.0, 0.0, 0.0, 1.6963224046759017E9, 0.0, 2023-10-03 17:40:04.675,,,,,,,,,,,,,,,,,,,,,,,,,,,,,,,,,,,,,,,,,,,,,,,,,,,,,,,,,,,,,,,,,,,,,,,,,,,
58.0, -187500.02235174447, 14084.750602811648, -187500.02235174447, -186455.72649904806, -187500.02235174447, -28133.157269138967, -187500.02235174447, -187500.02235174447, 0.056, 0.998, 0.032, 192.0, 1.0, 192.0, 31.0, 48.0, 1.0, 0.0, 0.0, 0.0, 0.0, 1.6963224046759124E9, 0.0, 2023-10-03 17:40:04.675,,,,,,,,,,,,,,,,,,,,,,,,,,,,,,,,,,,,,,,,,,,,,,,,,,,,,,,,,,,,,,,,,,,,,,,,,,,
59.0, -187500.02235174447, 747.2411688853704, -187500.02235174447, -187500.02235174447, -187500.02235174447, -34758.84017453673, -187500.02235174447, -187500.02235174447, 0.056, 0.998, 0.032, 192.0, 0.0, 0.0, 0.0, 0.0, 0.0, 0.0, 0.0, 0.0, 0.0, 1.696322404675923E9, 0.0, 2023-10-03 17:40:04.675,,,,,,,,,,,,,,,,,,,,,,,,,,,,,,,,,,,,,,,,,,,,,,,,,,,,,,,,,,,,,,,,,,,,,,,,,,,
60.0, -187500.02235174447, 5232.051638609367, -187500.02235174447, -187500.02235174447, -187500.02235174447, -32909.345079582345, -187500.02235174447, -187500.02235174447, 0.056, 0.998, 0.032, 192.0, 0.0, 0.0, 0.0, 0.0, 0.0, 0.0, 0.0, 0.0, 0.0, 1.6963224046759343E9, 0.0, 2023-10-03 17:40:04.675,,,,,,,,,,,,,,,,,,,,,,,,,,,,,,,,,,,,,,,,,,,,,,,,,,,,,,,,,,,,,,,,,,,,,,,,,,,
